AF3,F7,F3,FC5,T7,P7,O1,O2,P8,T8,FC6,F4,F8,AF4,eyeDetection
0.7762668377164779,0.45710306406685347,1.0,1.0,0.7954208043284888,0.0,0.9483417085427194,1.0,1.0,0.6795000000000073,0.6979484054438346,0.5185363505055364,0.950927109974415,0.8543388429752109,0
0.7171263630532363,0.3928969359331471,1.0,1.0,0.5245620401834551,0.0,0.9587939698492426,1.0,0.7567852437417758,0.3847500000000082,0.6250253910217306,0.4939817043813083,0.9016943734015265,0.728434917355377,0
0.7565105837074981,0.4214484679665758,1.0,1.0,0.35531655174690857,0.0,0.9483417085427194,0.8919631093544276,0.6756258234518983,0.2692500000000109,0.604306317286213,0.5556090515166092,0.8361572890025586,0.79467975206611,0
0.7697241821680583,0.4927576601671312,1.0,1.0,0.5753686780376986,0.0,0.9587939698492426,0.905401844532299,0.9325428194993304,0.6025000000000091,0.687588868576085,0.691381800674034,0.893542199488494,0.8873966942148734,0
0.7367543296985185,0.4927576601671312,1.0,1.0,0.710633103493787,0.0,0.9278391959799057,0.8242424242424214,0.7567852437417758,0.8205000000000154,0.7292301442210025,0.7038998555609005,0.9016943734015265,0.9138688016528922,0
0.6710711994868456,0.3928969359331471,1.0,1.0,0.643000890765758,0.0,0.876180904522616,0.5404479578392706,0.5404479578392706,0.5384999999999991,0.6666666666666666,0.531054405392381,0.8280051150895117,0.8012654958677656,0
0.6513149454778658,0.34289693593315157,0.9090678824721352,1.0,0.5753686780376986,0.0,0.8040201005025126,0.5135704874835276,0.7973649538867026,0.3847500000000082,0.489742027219173,0.25926817525275725,0.7787723785166232,0.6556043388429765,0
0.7302116741500988,0.4214484679665758,0.8571428571428505,0.9311813494732183,0.5921942529115143,0.0,0.7525628140703529,0.4864295125164723,0.621607378129124,0.4745000000000118,0.3855372740199011,0.18536350505536411,0.7295396419437346,0.6820764462809953,0
0.7367543296985185,0.47855153203342676,0.8052178318135659,0.8507061197041044,0.6261753158919423,0.0,0.8349748743718677,0.31093544137023027,0.1486166007904992,0.4615000000000009,0.5104611009547092,0.3582089552238835,0.8115409207161143,0.8012654958677656,0
0.7367543296985185,0.4856545961002821,0.8181357649442704,0.9080923559740084,0.5921942529115143,0.0,0.8659296482412137,0.3243741765481017,0.3243741765480777,0.4360000000000127,0.7292301442210025,0.45690900337023543,0.9755434782608593,0.8476239669421474,0
0.7367543296985185,0.47855153203342676,0.7142857142857011,0.9311813494732183,0.5413876150572706,0.0,0.7628140703517643,0.5135704874835276,0.6350461133069716,0.4360000000000127,0.687588868576085,0.3334135772749029,0.8852301790281291,0.7085485537190139,0
0.6183450930083378,0.36420612813370506,0.37664640324214066,0.7702308899349904,0.44010425258158026,0.0,0.7318592964824183,0.49986824769434374,0.3649538866930045,0.30775000000001,0.41681901279706907,0.07414540202214565,0.5901534526854194,0.5563016528925692,0
0.5066067992302742,0.23565459610027897,0.07776089159067053,0.517372786370771,0.32166540199927746,0.0,0.8040201005025126,0.3649538866930285,0.17575757575757853,0.25650000000000545,0.2709729839528796,0.0,0.47538363171354847,0.54300103305785,0
0.5066067992302742,0.3071030640668541,0.1816109422492398,0.47119479937235126,0.4061231896011522,0.0,0.8349748743718677,0.5404479578392706,0.621607378129124,0.35900000000001453,0.3542555352427332,0.11121810303321847,0.5410805626598489,0.5628873966942131,0
0.5657472738935158,0.414206128133707,0.4024822695035496,0.5861914368975527,0.4909108904358239,0.0,0.8040201005025126,0.8513833992095008,0.8919631093544036,0.3462500000000091,0.4478976234003733,0.37048627828597575,0.5655370843989751,0.6225464876033021,0
0.5789608723540759,0.3785515320334293,0.2857142857142758,0.5861914368975527,0.38929761472733665,0.0,0.8349748743718677,0.8242424242424214,0.6350461133069716,0.3335000000000036,0.45846028844200504,0.24699085219064318,0.5410805626598489,0.6621900826446322,0
0.4868505452212945,0.2999999999999987,0.0648429584599891,0.47119479937235126,0.35531655174690857,0.0,0.8968844221105597,0.6350461133069955,0.5404479578392706,0.37174999999999725,0.3438959983749836,0.0,0.47538363171354847,0.54300103305785,0
0.4473380372033351,0.2785515320334255,0.1167679837892507,0.45976238511545325,0.4909108904358239,0.0,0.8247236180904562,0.527009222661399,0.5675889328063258,0.37174999999999725,0.2500507820434613,0.0,0.47538363171354847,0.5497159090909135,0
0.5592046183450962,0.32855153203342735,0.2857142857142758,0.5057162071284592,0.5245620401834551,0.0,0.7216080402010069,0.3783926218708999,0.2703557312253035,0.29500000000000454,0.31261425959781564,0.1360134809821772,0.6147698209718636,0.7019628099173583,0
0.6052597819114752,0.3785515320334293,0.324721377912856,0.47119479937235126,0.5077364653096395,0.0,0.7732663316582966,0.2837944664031749,0.16231884057970708,0.14100000000000817,0.4688198253097731,0.27178623013962383,0.7213874680306877,0.6621900826446322,0
0.5855035279024955,0.4071030640668516,0.37664640324214066,0.49428379287156116,0.6261753158919423,0.0,0.8556783919598023,0.4324110671936741,0.6487483530961794,0.28200000000001635,0.6666666666666666,0.3211362542128107,0.7706202046035762,0.6953770661157026,0
0.7171263630532363,0.5071030640668553,0.46757852077000545,0.689755660165897,0.5585431031638831,0.0,0.84522613065327,0.5675889328063258,0.8242424242424214,0.7307500000000118,0.8334348974202744,0.37048627828597575,0.893542199488494,0.940340909090911,0
0.8025657472738889,0.6642061281337038,0.545339412360676,0.8621385339610025,0.338490976873093,0.0,0.8040201005025126,0.5675889328063258,0.5947299077733812,0.846250000000009,0.8021531586431064,0.37048627828597575,1.0,0.9536415289256183,0
0.7434252726106473,0.6071030640668529,0.4934143870314144,0.8047522976910984,0.2708587641450338,0.0,0.7732663316582966,0.6621870882740508,0.8242424242424214,0.6795000000000073,0.645947592931149,0.2963408762638301,0.9263107416879707,0.7417355371900843,0
0.6776138550352768,0.43565459610028023,0.3895643363728451,0.689755660165897,0.45692982745539584,0.0,0.7525628140703529,0.8919631093544276,1.0,0.7820000000000163,0.645947592931149,0.27178623013962383,0.8196930946291467,0.6621900826446322,0
0.6250160359204548,0.43565459610028023,0.324721377912856,0.609280430396783,0.5753686780376986,0.0,0.7732663316582966,1.0,1.0,0.9102499999999963,0.6563071297988986,0.25926817525275725,0.7787723785166232,0.7549070247933839,0
0.5525336754329674,0.42855153203342483,0.1557750759878539,0.5288052006276691,0.338490976873093,0.0,0.7628140703517643,1.0,0.716205533596825,0.5257500000000164,0.41681901279706907,0.07414540202214565,0.6229219948849106,0.6887913223140469,0
0.5131494547787055,0.32855153203342735,0.012917933130704462,0.4483299708585552,0.10161327570848729,0.0,0.7423115577889505,0.5541501976284544,0.189196310935426,0.12825000000000272,0.18748730448912543,0.0,0.4426150895140718,0.4436983471074426,0
0.5066067992302742,0.35710306406685605,0.2077001013171155,0.47119479937235126,0.22005212629079013,0.0,0.7628140703517643,0.3783926218708999,0.283794466403151,0.12825000000000272,0.2604103189112294,0.0,0.45907928388746916,0.4172262396694239,0
0.5459910198845361,0.4856545961002821,0.5195035460992901,0.6438018381528909,0.44010425258158026,0.0,0.8040201005025126,0.527009222661399,0.4729907773386009,0.23075000000001183,0.3855372740199011,0.16056812710640536,0.5573849104859282,0.6026601239669391,0
0.5459910198845361,0.4499999999999981,0.5195035460992901,0.655234252409789,0.37247203985352106,0.0,0.7628140703517643,0.4864295125164723,0.21633728590250528,0.17950000000000726,0.37497460897826934,0.16056812710640536,0.5164641943734046,0.6026601239669391,0
0.48017960230916573,0.33565459610028275,0.37664640324214066,0.43689755660165713,0.13559433868894538,0.0,0.7216080402010069,0.2837944664031749,0.08115942028985354,0.14100000000000817,0.4688198253097731,0.09894077997110438,0.5573849104859282,0.5364152892561943,0
0.4933932007697258,0.3714484679665739,0.46757852077000545,0.4483299708585552,0.15241991356276094,0.0,0.7423115577889505,0.4052700922266188,0.527009222661399,0.3335000000000036,0.645947592931149,0.2963408762638301,0.7376918158567815,0.6689049586776838,0
0.5920461834509267,0.44289693593314905,0.5975177304964504,0.5978480161398849,0.3045099138926649,0.0,0.8556783919598023,0.7702239789196472,0.81080368906455,0.5,0.687588868576085,0.40755897929704854,0.7706202046035762,0.7085485537190139,0
0.5789608723540759,0.3714484679665739,0.48049645390070994,0.5057162071284592,0.338490976873093,0.0,1.0,0.9728590250329446,0.8782608695652196,0.5384999999999991,0.614665854153981,0.2840635532017379,0.680306905370846,0.5761880165289321,0
0.5066067992302742,0.2928969359331497,0.24670719351569567,0.4023761488455492,0.22005212629079013,0.0,0.969045226130654,0.8379446640316294,0.9325428194993304,0.6025000000000091,0.6355880560633809,0.234713529128551,0.7213874680306877,0.5232438016528947,0
0.5131494547787055,0.414206128133707,0.22061803444781997,0.43689755660165713,0.13559433868894538,0.0,0.6494472361809126,0.4864295125164723,0.5404479578392706,0.6282500000000028,0.645947592931149,0.2963408762638301,0.8280051150895117,0.5497159090909135,0
0.48017960230916573,0.43565459610028023,0.22061803444781997,0.43689755660165713,0.13559433868894538,0.0,0.5567839195979954,0.2972332015810224,0.12173913043478031,0.3335000000000036,0.4478976234003733,0.19764082811747818,0.7376918158567815,0.5099431818181874,0
0.36844130853110213,0.2285515320334299,0.12968591691995515,0.37928715534633933,0.15241991356276094,0.0,0.7216080402010069,0.3378129117259491,0.189196310935426,0.0,0.20840950639854375,0.0,0.47538363171354847,0.46358471074380564,0
0.41449647209749285,0.25000000000000316,0.2077001013171155,0.4023761488455492,0.22005212629079013,0.0,0.7628140703517643,0.4052700922266188,0.3649538866930045,0.0,0.2293317083079436,0.03707270101107282,0.3935421994884868,0.5033574380165318,0
0.5789608723540759,0.47855153203342676,0.3895643363728451,0.517372786370771,0.37247203985352106,0.0,0.7835175879396988,0.5810276679841972,0.5675889328063258,0.30775000000001,0.4478976234003733,0.20991815117957036,0.5901534526854194,0.5563016528925692,0
0.6250160359204548,0.47855153203342676,0.3505572441742649,0.5516700291414448,0.44010425258158026,0.0,0.8968844221105597,0.7702239789196472,0.6893280632411062,0.4615000000000009,0.5001015640869411,0.2963408762638301,0.6886189258311964,0.6291322314049578,0
0.4736369467607461,0.3071030640668541,0.1816109422492398,0.4483299708585552,0.18607106331036205,0.0,0.907135678391962,0.621607378129124,0.4729907773386009,0.2692500000000109,0.4062563477554373,0.234713529128551,0.5492327365728958,0.5497159090909135,0
0.36177036561898507,0.2642061281337076,0.1167679837892507,0.4252409773593453,0.0,0.0,0.7732663316582966,0.5135704874835276,0.5541501976284544,0.05125000000000455,0.42717854966483715,0.08642272508425972,0.47538363171354847,0.38416838842974954,0
0.38806927517639606,0.34289693593315157,0.07776089159067053,0.4828513786146631,0.22005212629079013,0.0,0.7525628140703529,0.7433465085639044,1.0,0.32050000000001544,0.5833841153768131,0.1482908040442913,0.6229219948849106,0.45699896694215,0
0.4341244387427867,0.4214484679665758,0.12968591691995515,0.4252409773593453,0.5245620401834551,0.0,0.907135678391962,0.8242424242424214,0.905401844532275,0.7565000000000055,0.8334348974202744,0.3827636013480898,0.8196930946291467,0.6225464876033021,0
0.5131494547787055,0.414206128133707,0.2986322188449803,0.37928715534633933,0.25403318927124824,0.0,0.969045226130654,0.6621870882740508,0.6487483530961794,0.80775000000001,0.9376396506195462,0.41983630235916264,0.9098465473145734,0.6357179752066136,0
0.5985888389993581,0.33565459610028275,0.4544072948328342,0.4252409773593453,0.10161327570848729,0.0,0.8659296482412137,0.6621870882740508,0.7433465085639044,0.7180000000000064,0.8541539711558106,0.44463168030812134,0.9181585677749383,0.6887913223140469,0
0.6315586914688862,0.3928969359331471,0.6104356636271548,0.49428379287156116,0.38929761472733665,0.0,0.7525628140703529,0.6756258234519222,0.6621870882740508,0.7692500000000109,0.8230753605525063,0.642031776600869,0.9344629156010176,0.7815082644628104,0
0.6118024374599065,0.5214484679665733,0.5843465045592562,0.517372786370771,0.5413876150572706,0.0,0.7937688442211103,0.527009222661399,0.4864295125164723,0.5384999999999991,0.7395896810887707,0.531054405392381,0.8607736572890029,0.6225464876033021,0
0.4670942912123148,0.4499999999999981,0.37664640324214066,0.41380856310244724,0.4909108904358239,0.0,0.8659296482412137,0.4189723320158267,0.4595520421607295,0.2052500000000009,0.43753808653260523,0.04959075589791749,0.5655370843989751,0.3907541322314052,0
0.31571520205259435,0.25710306406685224,0.24670719351569567,0.3333333333333333,0.37247203985352106,0.0,0.8556783919598023,0.3512516469038206,0.2972332015810224,0.012750000000005457,0.19804996953077567,0.0,0.3443094629155982,0.25826446280991566,0
0.36844130853110213,0.25000000000000316,0.3505572441742649,0.3907195696032374,0.35531655174690857,0.0,0.9483417085427194,0.4729907773386009,0.2972332015810224,0.0,0.31261425959781564,0.03707270101107282,0.40984654731458064,0.29803719008265345,0
0.5066067992302742,0.42855153203342483,0.5975177304964504,0.5516700291414448,0.6093497410181268,0.0,1.0,0.6890645586297937,0.6081686429512526,0.25650000000000545,0.573024578509045,0.30861819932594414,0.6066176470588167,0.6092458677685948,0
0.6052597819114752,0.621448467966577,0.8442249240121461,0.7357094821788825,0.6598264656395435,0.0,0.9278391959799057,0.621607378129124,0.7027667984189776,0.6025000000000091,0.7188706073532529,0.5185363505055364,0.7869245524296701,0.8277376033057844,0
0.7762668377164779,0.6927576601671325,0.9222391084093065,0.8852275274602123,0.35531655174690857,0.0,0.7216080402010069,0.44584980237154553,0.5675889328063258,0.5642500000000155,0.7395896810887707,0.5433317284544952,0.8689258312020498,0.7682076446281031,0
0.861834509300828,0.6714484679665726,0.9222391084093065,0.9540461779870144,0.338490976873093,0.0,0.7835175879396988,0.527009222661399,0.527009222661399,0.5512500000000046,0.7083079423116027,0.3827636013480898,0.8770780051150822,0.74832128099174,0
0.7171263630532363,0.5927576601671286,0.8052178318135659,0.7702308899349904,0.5077364653096395,0.0,1.0,0.7836627140974947,0.7702239789196232,0.7692500000000109,0.8021531586431064,0.4321136254212767,0.9016943734015265,0.7880940082644661,0
0.5920461834509267,0.4856545961002821,0.6104356636271548,0.47119479937235126,0.2708587641450338,0.0,1.0,0.9459815546772258,1.0,0.7950000000000046,0.8959983749746103,0.5926817525276821,0.8607736572890029,0.6887913223140469,0
0.5657472738935158,0.4071030640668516,0.545339412360676,0.517372786370771,0.23687770116460571,0.0,1.0,0.9459815546772258,0.9594202898550732,0.7180000000000064,0.8021531586431064,0.46918632643234953,0.7295396419437346,0.6092458677685948,0
0.5592046183450962,0.45710306406685347,0.6494427558257351,0.7357094821788825,0.5921942529115143,0.0,1.0,0.8648221343873482,0.716205533596825,0.7307500000000118,0.7395896810887707,0.41983630235916264,0.7213874680306877,0.6754907024793396,0
0.5657472738935158,0.4714484679665777,0.6104356636271548,0.6321452589105587,0.6093497410181268,0.0,0.9278391959799057,0.8782608695652196,0.8513833992094768,0.6282500000000028,0.7708714198659385,0.5556090515166092,0.7623081841432258,0.6225464876033021,0
0.5066067992302742,0.3785515320334293,0.5065856129685856,0.4483299708585552,0.25403318927124824,0.0,0.907135678391962,0.9322793148880179,0.8782608695652196,0.4360000000000127,0.6355880560633809,0.4814636494944636,0.5820012787723725,0.45699896694215,0
0.3947402180885131,0.36420612813370506,0.5324214792299945,0.4828513786146631,0.20322655141700458,0.0,0.7732663316582966,0.6081686429512526,0.2972332015810224,0.24375,0.42717854966483715,0.234713529128551,0.41799872122762755,0.39733987603306087,0
0.35522771007055376,0.38565459610027836,0.48049645390070994,0.45976238511545325,0.5245620401834551,0.0,0.6494472361809126,0.2566534914360956,0.0,0.0,0.3542555352427332,0.19764082811747818,0.40984654731458064,0.42381198347107957,0
0.4473380372033351,0.3785515320334293,0.41565349544072083,0.5516700291414448,0.676981953746186,0.0,0.7628140703517643,0.4324110671936741,0.283794466403151,0.0,0.43753808653260523,0.37048627828597575,0.3935421994884868,0.39733987603306087,0
0.5722899294419471,0.44289693593314905,0.6104356636271548,0.7930957184487866,0.5413876150572706,0.0,0.8349748743718677,0.7027667984189776,0.6756258234518983,0.2692500000000109,0.5937436522445627,0.580404429465568,0.49999999999999273,0.45028409090909827,0
0.6118024374599065,0.5285515320334286,0.870060790273555,0.8507061197041044,0.38929761472733665,0.0,0.7216080402010069,0.4864295125164723,0.4324110671936741,0.5897500000000037,0.7188706073532529,0.642031776600869,0.6967710997442433,0.6556043388429765,0
0.6578576010262972,0.5714484679665751,1.0,0.8161847119479965,0.37247203985352106,0.0,0.7423115577889505,0.4189723320158267,0.44584980237154553,0.7820000000000163,0.8334348974202744,0.6174771304766408,0.8033887468030674,0.8012654958677656,0
0.7631815266196269,0.621448467966577,0.9741641337385911,0.8852275274602123,0.22005212629079013,0.0,1.0,0.8919631093544276,0.9459815546772018,0.9232500000000072,1.0,0.7900818488204078,0.9016943734015265,0.7880940082644661,0
0.7236690186016675,0.5999999999999974,0.9351570415400109,0.7816633041918886,0.05080663785424364,0.128930817610045,1.0,1.0,0.9728590250329446,0.7820000000000163,1.0,0.987722676937886,0.9590792838874619,0.7218491735537214,0
0.5657472738935158,0.4714484679665777,0.9480749746707153,0.6321452589105587,0.1692454884365465,0.14528301886792028,1.0,0.8513833992095008,0.7973649538867026,0.5642500000000155,0.9063579118423783,0.987722676937886,0.8524616368286378,0.6754907024793396,0
0.5262347658755564,0.4071030640668516,0.8571428571428505,0.7126204886796726,0.3045099138926649,0.128930817610045,1.0,0.8379446640316294,0.9188405797101464,0.6539999999999964,0.7708714198659385,0.7778045257582936,0.7049232736572904,0.582773760330576,0
0.4933932007697258,0.4000000000000025,0.6233535967578363,0.6438018381528909,0.2708587641450338,0.16132075471698365,1.0,0.8648221343873482,0.7702239789196232,0.5642500000000155,0.5833841153768131,0.46918632643234953,0.57384910485934,0.4172262396694239,0
0.4012828736369444,0.33565459610028275,0.3895643363728451,0.4483299708585552,0.25403318927124824,0.0,0.9173869346733734,0.4324110671936741,0.189196310935426,0.2692500000000109,0.4062563477554373,0.25926817525275725,0.47538363171354847,0.28473657024793436,0
0.3947402180885131,0.2856545961002809,0.23378926038501424,0.5402376148845671,0.38929761472733665,0.0,0.7318592964824183,0.0540184453227982,0.0,0.35900000000001453,0.37497460897826934,0.17284545016849753,0.49184782608696037,0.32450929752066043,0
0.30917254650416304,0.32855153203342735,0.12968591691995515,0.6438018381528909,0.47375540232921143,0.0,0.6596984924623148,0.01343873517787143,0.027140974967055344,0.4745000000000118,0.3855372740199011,0.09894077997110438,0.524616368286437,0.37086776859504217,0
0.16446440025657139,0.35000000000000064,0.025835866261408925,0.41380856310244724,0.2876843390188493,0.0,0.6184924623115665,0.0,0.0,0.08975000000000363,0.3020515945561654,0.0,0.46723145780051606,0.25826446280991566,0
0.25003207184092147,0.32855153203342735,0.0,0.3907195696032374,0.2708587641450338,0.0,0.6289447236180988,0.04057971014492677,0.027140974967055344,0.0,0.2293317083079436,0.03707270101107282,0.426310741687978,0.2317923553719087,0
0.4210391276459241,0.4071030640668516,0.16869300911853533,0.7471418964357806,0.6261753158919423,0.128930817610045,0.7732663316582966,0.5675889328063258,0.6621870882740508,0.14100000000000817,0.31261425959781564,0.25926817525275725,0.4344629156010249,0.3378099173553795,0
0.3947402180885131,0.5214484679665733,0.3895643363728451,0.8735709482179005,0.7782653162218464,0.3386792452830021,0.84522613065327,0.7702239789196472,0.8648221343873482,0.5127500000000055,0.4062563477554373,0.2963408762638301,0.4344629156010249,0.3642820247933865,0
0.34201411161000533,0.5427576601671331,0.4544072948328342,0.8047522976910984,0.6938075286200015,0.40314465408803885,0.814472361809054,0.621607378129124,0.7567852437417758,0.5642500000000155,0.4062563477554373,0.22243620606643694,0.46723145780051606,0.40392561983471653,0
0.4933932007697258,0.557103064066851,0.5843465045592562,0.8276171262048945,0.7446141664742452,0.4355345911949489,0.8866331658291483,0.7567852437417758,1.0,0.5642500000000155,0.4791793621775412,0.3950409244102039,0.6066176470588167,0.4834710743801687,0
0.6446440025657488,0.6285515320334261,0.8313069908814417,0.8966599417171104,0.7446141664742452,0.3226415094339673,1.0,0.9594202898550732,1.0,0.8205000000000154,0.7605118829981704,0.7161771786230146,0.8524616368286378,0.5628873966942131,0
0.6250160359204548,0.6285515320334261,0.9351570415400109,0.8735709482179005,0.710633103493787,0.14528301886792028,0.9173869346733734,0.7567852437417758,0.6487483530961794,1.0,0.9270769855779145,0.8519499277804393,1.0,0.6887913223140469,0
0.5722899294419471,0.4856545961002821,0.8571428571428505,0.7816633041918886,0.6261753158919423,0.20974842767295707,0.814472361809054,0.4052700922266188,0.21633728590250528,0.7565000000000055,0.7708714198659385,0.7407318247472209,0.9016943734015265,0.6754907024793396,0
0.5920461834509267,0.36420612813370506,0.6881965552178254,0.7357094821788825,0.3045099138926649,0.24182389937105522,0.8866331658291483,0.2837944664031749,0.2026350461132974,0.2692500000000109,0.573024578509045,0.5678863745787233,0.7295396419437346,0.5099431818181874,0
0.5855035279024955,0.45710306406685347,0.675278622087121,0.8047522976910984,0.2876843390188493,0.08081761006288347,0.969045226130654,0.45955204216075346,0.5135704874835276,0.3335000000000036,0.604306317286213,0.5926817525276821,0.8033887468030674,0.5497159090909135,0
0.5592046183450962,0.5856545961002796,0.8313069908814417,0.9080923559740084,0.6598264656395435,0.128930817610045,0.9483417085427194,0.6756258234519222,0.8379446640316294,0.7180000000000064,0.8230753605525063,0.7161771786230146,0.9590792838874619,0.6754907024793396,0
0.5525336754329674,0.5142061281337045,0.8832320162107262,0.8390495404617926,0.6598264656395435,0.1937106918238937,0.907135678391962,0.716205533596849,0.8379446640316294,0.80775000000001,0.9063579118423783,0.7655272026962014,0.9426150895140646,0.5893595041322317,0
0.48017960230916573,0.36420612813370506,0.8313069908814417,0.7585743106926787,0.44010425258158026,0.0,0.8968844221105597,0.7567852437417758,0.7027667984189776,0.6539999999999964,0.8021531586431064,0.7161771786230146,0.8280051150895117,0.4966425619834683,0
0.4210391276459241,0.34289693593315157,0.7532928064842813,0.7585743106926787,0.4909108904358239,0.0,0.7835175879396988,0.8513833992095008,0.7567852437417758,0.6282500000000028,0.6666666666666666,0.6049590755897961,0.746003836317132,0.5364152892561943,0
0.5131494547787055,0.46420612813370254,0.6104356636271548,0.7930957184487866,0.5753686780376986,0.1937106918238937,0.6701507537688471,0.7702239789196472,0.8242424242424214,0.7565000000000055,0.6772293317083169,0.5556090515166092,0.7706202046035762,0.5033574380165318,0
0.5985888389993581,0.6285515320334261,0.5714285714285747,0.8735709482179005,0.6938075286200015,0.35471698113206546,0.7937688442211103,0.6487483530961794,0.7296442687746965,0.6795000000000073,0.7501523461304208,0.5556090515166092,0.7787723785166232,0.41064049586776824,0
0.4868505452212945,0.5642061281337063,0.6104356636271548,0.9080923559740084,0.8122463792023044,0.22578616352199185,0.9587939698492426,0.6350461133069955,0.5675889328063258,0.3847500000000082,0.5937436522445627,0.44463168030812134,0.6393861892583079,0.31120867768595306,0
0.35522771007055376,0.3785515320334293,0.4544072948328342,0.7930957184487866,0.47375540232921143,0.09685534591194685,0.938090452261308,0.6081686429512526,0.4055335968379313,0.07699999999999818,0.3333333333333333,0.2840635532017379,0.49184782608696037,0.2516787190082717,0
0.38806927517639606,0.414206128133707,0.5324214792299945,0.6780990809235647,0.10161327570848729,0.08081761006288347,0.7835175879396988,0.4324110671936741,0.3378129117259491,0.012750000000005457,0.4062563477554373,0.41983630235916264,0.5984654731457844,0.40392561983471653,0
0.5920461834509267,0.5927576601671286,0.9741641337385911,0.9080923559740084,0.38929761472733665,0.0,0.6906532663316608,0.3243741765481017,0.5135704874835276,0.3847500000000082,0.7812309567337067,0.8271545498314805,0.8524616368286378,0.6490185950413209,0
0.6973701090442566,0.5999999999999974,1.0,1.0,0.6261753158919423,0.0,0.6701507537688471,0.45955204216075346,0.7702239789196232,0.8335000000000037,0.9583587243550824,1.0,0.950927109974415,0.6621900826446322,0
0.5262347658755564,0.44289693593314905,0.9222391084093065,0.8852275274602123,0.2708587641450338,0.0,0.7011055276381931,0.5944664031620688,0.81080368906455,0.7692500000000109,0.7395896810887707,0.7407318247472209,0.7869245524296701,0.46358471074380564,0
0.35522771007055376,0.33565459610028275,0.7662107396149858,0.6780990809235647,0.18607106331036205,0.032389937106910044,0.7423115577889505,0.6756258234519222,0.716205533596825,0.4360000000000127,0.5521023765996452,0.5062590274434223,0.6066176470588167,0.37086776859504217,0
0.4736369467607461,0.3714484679665739,0.870060790273555,0.8621385339610025,0.6598264656395435,0.0,0.7318592964824183,0.716205533596849,0.6621870882740508,0.5,0.614665854153981,0.6049590755897961,0.6640025575447522,0.39733987603306087,0
0.6381013470173175,0.4000000000000025,0.9351570415400109,0.9311813494732183,0.7277885916004296,0.11289308176101022,0.7937688442211103,0.7296442687747204,0.6621870882740508,0.5,0.7083079423116027,0.7161771786230146,0.746003836317132,0.4436983471074426,0
0.5722899294419471,0.35000000000000064,0.8442249240121461,0.7930957184487866,0.4061231896011522,0.24182389937105522,0.84522613065327,0.9188405797101464,0.8513833992094768,0.3975000000000136,0.7083079423116027,0.7161771786230146,0.7706202046035762,0.5563016528925692,0
0.4670942912123148,0.38565459610027836,0.870060790273555,0.8047522976910984,0.45692982745539584,0.016037735849063376,0.7628140703517643,1.0,1.0,0.6025000000000091,0.8437944342880425,0.7900818488204078,0.8689258312020498,0.6490185950413209,0
0.4868505452212945,0.44289693593314905,0.8181357649442704,0.9080923559740084,0.5585431031638831,0.0,0.6906532663316608,0.9322793148880179,0.9728590250329446,0.6539999999999964,0.9792809262644823,0.8271545498314805,0.8852301790281291,0.5694731404958687,0
0.5196921103271251,0.3928969359331471,0.5065856129685856,0.7930957184487866,0.42294876447496776,0.20974842767295707,0.7113567839196046,0.8648221343873482,0.8919631093544036,0.4745000000000118,0.8334348974202744,0.6668271545498277,0.7376918158567815,0.4305268595041313,0
0.5066067992302742,0.35710306406685605,0.3895643363728451,0.6438018381528909,0.6261753158919423,0.1773584905660184,0.6494472361809126,0.7836627140974947,0.6893280632411062,0.5,0.687588868576085,0.46918632643234953,0.6558503836317053,0.45028409090909827,0
0.4605516356638835,0.35000000000000064,0.3895643363728451,0.5861914368975527,1.0,0.08081761006288347,0.6184924623115665,0.5404479578392706,0.44584980237154553,0.5257500000000164,0.7083079423116027,0.3950409244102039,0.7295396419437346,0.4436983471074426,0
0.41449647209749285,0.35710306406685605,0.14285714285714943,0.4828513786146631,0.8122463792023044,0.14528301886792028,0.7113567839196046,0.4864295125164723,0.3783926218708759,0.30775000000001,0.6772293317083169,0.30861819932594414,0.7213874680306877,0.38416838842974954,0
0.4473380372033351,0.4071030640668516,0.14285714285714943,0.517372786370771,0.5585431031638831,0.16132075471698365,0.6596984924623148,0.6350461133069955,0.4189723320158027,0.30775000000001,0.6355880560633809,0.3334135772749029,0.6393861892583079,0.41064049586776824,0
0.4736369467607461,0.43565459610028023,0.4285714285714253,0.7357094821788825,0.8798785919303336,0.128930817610045,0.5772864321608091,0.7296442687747204,0.4864295125164723,0.5127500000000055,0.7292301442210025,0.5678863745787233,0.631234015345261,0.42381198347107957,0
0.40782552918537573,0.3714484679665739,0.3505572441742649,0.6666666666666666,0.863053017056548,0.128930817610045,0.5360804020100517,0.7296442687747204,0.6350461133069716,0.5512500000000046,0.7188706073532529,0.5926817525276821,0.6066176470588167,0.3179235537190165,0
0.34201411161000533,0.2928969359331497,0.012917933130704462,0.3907195696032374,0.3045099138926649,0.016037735849063376,0.5153768844221172,0.621607378129124,0.5810276679841972,0.35900000000001453,0.5417428397318771,0.2840635532017379,0.524616368286437,0.2317923553719087,0
0.38152661962796475,0.3071030640668541,0.0,0.41380856310244724,0.25403318927124824,0.0,0.5360804020100517,0.4189723320158267,0.2972332015810224,0.21800000000000636,0.5208206378224772,0.1482908040442913,0.49999999999999273,0.3179235537190165,0
0.4605516356638835,0.38565459610027836,0.22061803444781997,0.5288052006276691,0.643000890765758,0.0,0.6184924623115665,0.3783926218708999,0.2703557312253035,0.32050000000001544,0.645947592931149,0.345690900337017,0.5573849104859282,0.43711260330578694,0
0.4736369467607461,0.35710306406685605,0.4024822695035496,0.4252409773593453,0.5753686780376986,0.04842767295597342,0.7113567839196046,0.5810276679841972,0.3512516469038206,0.2052500000000009,0.6666666666666666,0.4939817043813083,0.5655370843989751,0.42381198347107957,0
0.4210391276459241,0.3142061281337032,0.4544072948328342,0.3907195696032374,0.37247203985352106,0.04842767295597342,0.6494472361809126,0.6081686429512526,0.3512516469038206,0.19225000000001274,0.6979484054438346,0.6049590755897961,0.6147698209718636,0.3642820247933865,0
0.4012828736369444,0.4000000000000025,0.44148936170212977,0.47119479937235126,0.4909108904358239,0.0,0.5772864321608091,0.4729907773386009,0.527009222661399,0.6025000000000091,0.8437944342880425,0.7284545016851067,0.7787723785166232,0.4436983471074426,0
0.4605516356638835,0.46420612813370254,0.48049645390070994,0.517372786370771,0.7614397413480307,0.0,0.7011055276381931,0.621607378129124,0.7296442687746965,0.7950000000000046,0.9376396506195462,0.7161771786230146,0.8280051150895117,0.5364152892561943,0
0.5592046183450962,0.4000000000000025,0.6104356636271548,0.49428379287156116,0.7782653162218464,0.14528301886792028,0.876180904522616,0.8648221343873482,0.6893280632411062,0.6282500000000028,0.9479991874873144,0.7655272026962014,0.8115409207161143,0.5298295454545504,0
0.5985888389993581,0.3714484679665739,0.7013677811550197,0.4828513786146631,0.6261753158919423,0.306289308176092,0.8659296482412137,0.8782608695652196,0.8379446640316294,0.7692500000000109,0.9792809262644823,0.8890226287915122,0.9016943734015265,0.5761880165289321,0
0.5262347658755564,0.4000000000000025,0.6233535967578363,0.4483299708585552,0.6093497410181268,0.16132075471698365,0.7835175879396988,0.8513833992095008,1.0,0.846250000000009,0.9583587243550824,0.7900818488204078,0.893542199488494,0.6158316115702505,0
0.4012828736369444,0.35710306406685605,0.41565349544072083,0.3678547410894413,0.643000890765758,0.0,0.7525628140703529,0.7433465085639044,0.716205533596825,0.5127500000000055,0.7917936217753384,0.580404429465568,0.746003836317132,0.5165289256198313,0
0.4012828736369444,0.35000000000000064,0.44148936170212977,0.43689755660165713,0.5413876150572706,0.0,0.7113567839196046,0.5944664031620688,0.4864295125164723,0.4360000000000127,0.6563071297988986,0.6049590755897961,0.6475383631713548,0.3907541322314052,0
0.4736369467607461,0.42855153203342483,0.5324214792299945,0.5516700291414448,0.5077364653096395,0.032389937106910044,0.7732663316582966,0.621607378129124,0.527009222661399,0.5127500000000055,0.6979484054438346,0.6543090996629611,0.631234015345261,0.37086776859504217,0
0.37498396407953344,0.38565459610027836,0.2725430597771046,0.3678547410894413,0.38929761472733665,0.0,0.8040201005025126,0.6350461133069955,0.4189723320158027,0.23075000000001183,0.6666666666666666,0.4814636494944636,0.5410805626598489,0.34439566115702347,0
0.23681847338037304,0.22144846796657452,0.012917933130704462,0.09190764402601197,0.08478770083470173,0.0,0.7525628140703529,0.5944664031620688,0.5001317523056562,0.08975000000000363,0.5417428397318771,0.3211362542128107,0.45907928388746916,0.3310950413223161,0
0.25003207184092147,0.2428969359331478,0.051925025329284634,0.20690428155123383,0.22005212629079013,0.0644654088050368,0.7423115577889505,0.7702239789196472,0.7973649538867026,0.4360000000000127,0.604306317286213,0.44463168030812134,0.524616368286437,0.40392561983471653,0
0.34201411161000533,0.42855153203342483,0.14285714285714943,0.3678547410894413,0.6261753158919423,0.128930817610045,0.7113567839196046,0.810803689064574,0.6893280632411062,0.6539999999999964,0.7917936217753384,0.6174771304766408,0.6721547314577991,0.4834710743801687,0
0.4341244387427867,0.45710306406685347,0.19478216818643407,0.3447657475902314,0.5245620401834551,0.0,0.5875376884422114,0.5944664031620688,0.4324110671936741,0.4872500000000173,0.7501523461304208,0.6174771304766408,0.6640025575447522,0.4701704545454613,0
0.4538806927517664,0.36420612813370506,0.41565349544072083,0.4252409773593453,0.2708587641450338,0.0,0.5051256281407057,0.5810276679841972,0.5404479578392706,0.35900000000001453,0.687588868576085,0.6174771304766408,0.5573849104859282,0.42381198347107957,0
0.4341244387427867,0.3785515320334293,0.5324214792299945,0.37928715534633933,0.5245620401834551,0.0,0.5979899497487438,0.716205533596849,0.6756258234518983,0.3335000000000036,0.7917936217753384,0.7161771786230146,0.6147698209718636,0.4701704545454613,0
0.4473380372033351,0.43565459610028023,0.31155015197568475,0.19547186729433577,0.5585431031638831,0.08081761006288347,0.7011055276381931,0.6756258234519222,0.6487483530961794,0.4360000000000127,0.8647166361974423,0.7284545016851067,0.746003836317132,0.5099431818181874,0
0.3947402180885131,0.4000000000000025,0.1557750759878539,0.28737951132032735,0.13559433868894538,0.0,0.6906532663316608,0.4729907773386009,0.4595520421607295,0.5,0.7395896810887707,0.7038998555609005,0.680306905370846,0.42381198347107957,0
0.25003207184092147,0.2856545961002809,0.12968591691995515,0.41380856310244724,0.08478770083470173,0.0,0.5670351758793977,0.2837944664031749,0.2566534914360956,0.37174999999999725,0.5521023765996452,0.5926817525276821,0.47538363171354847,0.2781508264462787,0
0.22360487491981298,0.2142061281337057,0.0,0.19547186729433577,0.23687770116460571,0.0,0.4741708542713597,0.24321475625824815,0.283794466403151,0.15399999999999636,0.4791793621775412,0.37048627828597575,0.4016943734015337,0.2516787190082717,0
0.29595894804361467,0.20710306406685666,0.0,0.01143241425689805,0.13559433868894538,0.0,0.5772864321608091,0.44584980237154553,0.5135704874835276,0.21800000000000636,0.5521023765996452,0.3334135772749029,0.524616368286437,0.3642820247933865,0
0.26311738293777237,0.20710306406685666,0.0,0.06904281551221587,0.01715548810664253,0.0,0.7628140703517643,0.8782608695652196,0.81080368906455,0.4745000000000118,0.6563071297988986,0.41983630235916264,0.6229219948849106,0.3378099173553795,0
0.23027581783194176,0.18565459610027707,0.0,0.0,0.03398106298045809,0.0,0.8349748743718677,1.0,0.9594202898550732,0.6282500000000028,0.6666666666666666,0.345690900337017,0.5492327365728958,0.21190599173554567,0
0.3223861449647231,0.25710306406685224,0.0,0.01143241425689805,0.08478770083470173,0.0,0.6804020100502586,0.8648221343873482,0.7973649538867026,0.6025000000000091,0.5937436522445627,0.3582089552238835,0.49999999999999273,0.27156508264463475,0
0.37498396407953344,0.35000000000000064,0.0,0.3102443398341235,0.20322655141700458,0.0,0.4741708542713597,0.39183135704874733,0.39183135704874733,0.4360000000000127,0.5937436522445627,0.4939817043813083,0.5573849104859282,0.38416838842974954,0
0.30917254650416304,0.2785515320334255,0.0,0.3447657475902314,0.22005212629079013,0.0,0.4020100502512563,0.2972332015810224,0.189196310935426,0.30775000000001,0.6563071297988986,0.45690900337023543,0.5410805626598489,0.34439566115702347,0
0.2696600384862037,0.2285515320334299,0.0,0.13786146603899757,0.06796212596088617,0.0,0.391758793969854,0.3783926218708999,0.24321475625822417,0.1025000000000091,0.5521023765996452,0.30861819932594414,0.426310741687978,0.2649793388429791,0
0.34868505452212245,0.35000000000000064,0.0,0.10334005828288963,0.10161327570848729,0.0,0.3195979899497506,0.3378129117259491,0.283794466403151,0.0,0.3958968108876692,0.46918632643234953,0.4426150895140718,0.3179235537190165,0
0.44079538165490384,0.43565459610028023,0.0,0.24142568930734176,0.15241991356276094,0.0,0.3093467336683483,0.39183135704874733,0.2972332015810224,0.1667500000000018,0.531383302864109,0.6543090996629611,0.5083120204603577,0.38416838842974954,0
0.4210391276459241,0.3714484679665739,0.0,0.20690428155123383,0.05080663785424364,0.0,0.5463316582914631,0.5944664031620688,0.3512516469038206,0.1667500000000018,0.614665854153981,0.4939817043813083,0.41799872122762755,0.3575671487603348,0
0.34868505452212245,0.32855153203342735,0.0,0.10334005828288963,0.0,0.0,0.6289447236180988,0.621607378129124,0.39183135704874733,0.07699999999999818,0.5104611009547092,0.37048627828597575,0.3606138107416921,0.31120867768595306,0
0.40782552918537573,0.43565459610028023,0.0,0.18381528805200356,0.01715548810664253,0.0,0.45366834170854603,0.4052700922266188,0.3649538866930045,0.24375,0.5417428397318771,0.4814636494944636,0.4836956521739134,0.40392561983471653,0
0.6381013470173175,0.6071030640668529,0.0,0.3333333333333333,0.13559433868894538,0.0,0.45366834170854603,0.3783926218708999,0.4595520421607295,0.3847500000000082,0.6250253910217306,0.5678863745787233,0.47538363171354847,0.582773760330576,0
0.861834509300828,0.735654596100279,0.012917933130704462,0.41380856310244724,0.13559433868894538,0.0,0.5670351758793977,0.5944664031620688,0.6756258234518983,0.25650000000000545,0.5833841153768131,0.580404429465568,0.4344629156010249,0.7218491735537214,0
1.0,0.9499999999999981,0.1557750759878539,0.6438018381528909,0.22005212629079013,0.0,0.4124623115577977,0.5135704874835276,0.5135704874835276,0.19225000000001274,0.6355880560633809,0.6543090996629611,0.6475383631713548,0.8740960743801661,0
1.0,1.0,0.46757852077000545,1.0,0.38929761472733665,0.0,0.14432160804020686,0.08115942028985354,0.08115942028985354,0.2052500000000009,0.7708714198659385,0.7532498796340874,0.8280051150895117,1.0,0
1.0,1.0,0.5714285714285747,1.0,0.35531655174690857,0.0,0.07216080402010343,0.06745718050066964,0.17575757575757853,0.1667500000000018,0.8230753605525063,0.7900818488204078,0.8689258312020498,1.0,0
1.0,1.0,0.4544072948328342,1.0,0.20322655141700458,0.0,0.15477386934673915,0.39183135704874733,0.3649538866930045,0.11549999999999727,0.8750761730652105,0.8148772267693665,0.9918478260869531,1.0,0
1.0,1.0,0.41565349544072083,1.0,0.2876843390188493,0.0,0.2576884422110586,0.21633728590250528,0.0,0.0,0.8647166361974423,0.8148772267693665,1.0,1.0,0
1.0,1.0,0.5975177304964504,1.0,0.35531655174690857,0.0,0.4020100502512563,0.0,0.0,0.0,0.8334348974202744,0.9629272989889271,1.0,1.0,0
1.0,1.0,0.8313069908814417,1.0,0.1692454884365465,0.0,0.4741708542713597,0.04057971014492677,0.027140974967055344,0.0,0.8854357099329785,1.0,1.0,1.0,0
1.0,1.0,0.9090678824721352,1.0,0.08478770083470173,0.0,0.35055276381909656,0.09459815546772497,0.0,0.0,0.9896404631322504,1.0,1.0,1.0,0
1.0,1.0,0.9480749746707153,1.0,0.15241991356276094,0.0,0.2576884422110586,0.04057971014492677,0.0,0.0,1.0,1.0,1.0,1.0,0
1.0,1.0,1.0,1.0,0.35531655174690857,0.0,0.4124623115577977,0.39183135704874733,0.527009222661399,0.3462500000000091,1.0,1.0,1.0,1.0,0
1.0,1.0,1.0,1.0,0.4909108904358239,0.0,0.484623115577892,0.7027667984189776,0.7296442687746965,0.7180000000000064,1.0,1.0,1.0,1.0,0
1.0,1.0,1.0,1.0,0.45692982745539584,0.0,0.3815075376884426,0.5944664031620688,0.5810276679841972,0.6154999999999973,1.0,1.0,1.0,1.0,0
1.0,1.0,1.0,1.0,0.4909108904358239,0.0,0.4124623115577977,0.44584980237154553,0.4324110671936741,0.4615000000000009,1.0,1.0,1.0,1.0,0
1.0,1.0,1.0,1.0,0.5077364653096395,0.0,0.5360804020100517,0.18919631093544995,0.12173913043478031,0.4745000000000118,1.0,1.0,1.0,1.0,0
1.0,1.0,1.0,1.0,0.5413876150572706,0.0,0.484623115577892,0.0,0.027140974967055344,0.5384999999999991,1.0,1.0,1.0,1.0,0
1.0,1.0,1.0,1.0,0.7446141664742452,0.0,0.4020100502512563,0.0,0.08115942028985354,0.5897500000000037,1.0,1.0,1.0,1.0,0
1.0,1.0,1.0,1.0,0.710633103493787,0.0,0.43296482412061144,0.0,0.0,0.5512500000000046,1.0,1.0,1.0,1.0,0
1.0,1.0,1.0,1.0,0.338490976873093,0.0,0.4227135678392,0.0,0.0,0.4872500000000173,1.0,1.0,1.0,1.0,0
1.0,1.0,1.0,1.0,0.15241991356276094,0.0,0.3815075376884426,0.0,0.08115942028985354,0.6667500000000018,1.0,1.0,1.0,1.0,0
1.0,1.0,1.0,1.0,0.3045099138926649,0.0,0.484623115577892,0.01343873517787143,0.283794466403151,0.8975000000000136,1.0,1.0,1.0,1.0,0
1.0,1.0,1.0,1.0,0.32166540199927746,0.0,0.5567839195979954,0.0,0.10803689064557244,0.7950000000000046,1.0,1.0,1.0,1.0,0
1.0,1.0,1.0,1.0,0.05080663785424364,0.0,0.49487437185930344,0.0,0.027140974967055344,0.4872500000000173,1.0,1.0,1.0,1.0,0
1.0,1.0,1.0,1.0,0.0,0.0,0.4227135678392,0.0,0.01343873517787143,0.25650000000000545,1.0,1.0,1.0,1.0,0
1.0,1.0,1.0,1.0,0.22005212629079013,0.0,0.3712562814070403,0.0,0.0,0.3335000000000036,1.0,1.0,1.0,1.0,0
1.0,1.0,1.0,1.0,0.338490976873093,0.0,0.3403015075376943,0.0,0.0,0.7950000000000046,1.0,1.0,1.0,1.0,0
1.0,1.0,1.0,1.0,0.13559433868894538,0.0,0.4124623115577977,0.0,0.4595520421607295,1.0,1.0,1.0,1.0,1.0,0
1.0,1.0,1.0,1.0,0.0,0.0,0.5463316582914631,0.13517786561265174,0.5810276679841972,1.0,1.0,1.0,1.0,1.0,0
1.0,1.0,1.0,1.0,0.0,0.0,0.5670351758793977,0.0540184453227982,0.4055335968379313,1.0,1.0,1.0,1.0,1.0,0
1.0,1.0,1.0,0.9080923559740084,0.0,0.0,0.5258291457286495,0.22977602108037673,0.716205533596825,1.0,1.0,1.0,1.0,1.0,0
1.0,1.0,1.0,0.7357094821788825,0.0,0.0,0.4639195979899574,0.5944664031620688,0.9459815546772018,1.0,1.0,1.0,1.0,1.0,0
1.0,0.9571030640668535,1.0,0.5057162071284592,0.0,0.0,0.360804020100508,0.4864295125164723,0.6350461133069716,1.0,1.0,1.0,1.0,1.0,0
1.0,0.9213091922005561,0.7791286727456902,0.5402376148845671,0.0,0.0,0.329849246231162,0.3243741765481017,0.527009222661399,1.0,1.0,1.0,1.0,1.0,0
1.0,0.878551532033423,0.9222391084093065,0.7357094821788825,0.01715548810664253,0.0,0.391758793969854,0.45955204216075346,0.5810276679841972,1.0,1.0,1.0,1.0,1.0,0
1.0,0.9071030640668516,1.0,0.8276171262048945,0.18607106331036205,0.0,0.4227135678392,0.4324110671936741,0.5675889328063258,1.0,1.0,1.0,1.0,1.0,0
1.0,0.9499999999999981,1.0,0.8276171262048945,0.22005212629079013,0.0,0.4124623115577977,0.22977602108037673,0.7567852437417758,1.0,1.0,1.0,1.0,1.0,0
1.0,0.9000000000000026,1.0,0.8161847119479965,0.20322655141700458,0.0,0.484623115577892,0.2837944664031749,1.0,1.0,1.0,1.0,1.0,1.0,0
1.0,0.7785515320334255,1.0,0.6438018381528909,0.13559433868894538,0.0,0.5772864321608091,0.621607378129124,1.0,1.0,1.0,1.0,1.0,1.0,0
1.0,0.5785515320334242,1.0,0.4483299708585552,0.0,0.0,0.5567839195979954,0.8513833992095008,1.0,1.0,1.0,1.0,1.0,1.0,1
1.0,0.4071030640668516,1.0,0.4252409773593453,0.0,0.0,0.4227135678392,0.8379446640316294,1.0,1.0,1.0,1.0,1.0,1.0,1
1.0,0.3071030640668541,0.9351570415400109,0.3102443398341235,0.0,0.0,0.2783919597990023,0.6487483530961794,0.5810276679841972,1.0,1.0,1.0,1.0,1.0,1
1.0,0.1928969359331522,0.9222391084093065,0.1264290517821199,0.0,0.0,0.2269346733668426,0.31093544137023027,0.16231884057970708,0.6922500000000127,1.0,1.0,1.0,1.0,1
1.0,0.15710306406685476,1.0,0.14951804528132978,0.0,0.0,0.2783919597990023,0.0,0.0,0.6025000000000091,1.0,1.0,1.0,1.0,1
1.0,0.16434540389972357,1.0,0.28737951132032735,0.0,0.0,0.4020100502512563,0.0,0.0,0.7307500000000118,1.0,1.0,1.0,1.0,1
1.0,0.0928969359331484,0.9090678824721352,0.22976911006500952,0.0,0.0,0.4639195979899574,0.0,0.39183135704874733,0.9872500000000173,1.0,1.0,1.0,1.0,1
1.0,0.07855153203343054,0.870060790273555,0.14951804528132978,0.0,0.0,0.4741708542713597,0.5675889328063258,1.0,1.0,1.0,1.0,1.0,1.0,1
1.0,0.0143454038997242,0.8832320162107262,0.18381528805200356,0.0,0.0,0.5772864321608091,1.0,1.0,1.0,1.0,1.0,1.0,1.0,1
1.0,0.0,0.870060790273555,0.11499663752522185,0.0,0.0,0.7113567839196046,1.0,1.0,1.0,1.0,1.0,1.0,1.0,1
1.0,0.0,0.7532928064842813,0.11499663752522185,0.03398106298045809,0.0,0.7318592964824183,1.0,1.0,1.0,1.0,1.0,1.0,1.0,1
1.0,0.0,0.5714285714285747,0.22976911006500952,0.03398106298045809,0.016037735849063376,0.6184924623115665,1.0,1.0,1.0,1.0,1.0,1.0,1.0,1
1.0,0.0,0.4285714285714253,0.1264290517821199,0.0,0.0,0.5051256281407057,0.8782608695652196,1.0,1.0,1.0,1.0,1.0,1.0,1
1.0,0.0,0.4934143870314144,0.0,0.0,0.0,0.4639195979899574,0.5541501976284544,0.9459815546772018,1.0,1.0,1.0,1.0,1.0,1
1.0,0.0,0.44148936170212977,0.0,0.0,0.0,0.45366834170854603,0.5810276679841972,1.0,1.0,1.0,1.0,1.0,1.0,1
1.0,0.0,0.1816109422492398,0.0,0.0,0.0,0.5258291457286495,0.7567852437417758,1.0,1.0,1.0,1.0,1.0,1.0,1
1.0,0.0,0.14285714285714943,0.0,0.0,0.0,0.6391959798995012,0.9188405797101464,1.0,1.0,1.0,1.0,1.0,1.0,1
1.0,0.0,0.41565349544072083,0.0,0.0,0.0,0.7011055276381931,1.0,1.0,1.0,1.0,1.0,1.0,1.0,1
1.0,0.0,0.46757852077000545,0.0,0.01715548810664253,0.0,0.6289447236180988,1.0,1.0,1.0,1.0,1.0,1.0,1.0,1
1.0,0.0,0.14285714285714943,0.0,0.0,0.0,0.6494472361809126,0.9865612648221526,1.0,1.0,1.0,1.0,1.0,1.0,1
1.0,0.0,0.0,0.0,0.0,0.0,0.814472361809054,0.9188405797101464,1.0,1.0,1.0,1.0,1.0,1.0,1
1.0,0.0,0.12968591691995515,0.0,0.0,0.0,0.8247236180904562,0.8242424242424214,1.0,1.0,1.0,1.0,1.0,1.0,1
1.0,0.0,0.1557750759878539,0.0,0.0,0.0,0.7318592964824183,0.7702239789196472,1.0,1.0,1.0,1.0,1.0,1.0,1
1.0,0.0,0.0648429584599891,0.0,0.0,0.0,0.7423115577889505,0.905401844532299,1.0,1.0,1.0,1.0,1.0,1.0,1
1.0,0.0,0.2077001013171155,0.0,0.0,0.0,0.814472361809054,1.0,1.0,1.0,1.0,1.0,1.0,1.0,1
1.0,0.0,0.41565349544072083,0.0,0.0,0.0,0.8866331658291483,1.0,1.0,1.0,1.0,1.0,1.0,1.0,1
1.0,0.0,0.3505572441742649,0.0,0.0,0.0,0.9587939698492426,1.0,1.0,1.0,1.0,1.0,1.0,1.0,1
0.9604874919820406,0.0,0.3505572441742649,0.0,0.0,0.16132075471698365,1.0,1.0,1.0,1.0,1.0,1.0,1.0,1.0,1
0.9802437459910203,0.0,0.44148936170212977,0.0,0.1692454884365465,0.27421383647799386,1.0,1.0,1.0,1.0,1.0,1.0,1.0,1.0,1
1.0,0.0,0.2986322188449803,0.0,0.0,0.0644654088050368,1.0,1.0,1.0,1.0,1.0,1.0,1.0,1.0,1
0.9209749839640812,0.0,0.23378926038501424,0.0,0.0,0.0,1.0,1.0,1.0,1.0,1.0,1.0,1.0,1.0,1
0.8025657472738889,0.0,0.2725430597771046,0.0,0.0,0.0,1.0,1.0,1.0,1.0,1.0,1.0,1.0,1.0,1
0.7565105837074981,0.0,0.0909321175278648,0.0,0.0,0.128930817610045,1.0,1.0,1.0,1.0,1.0,1.0,1.0,1.0,1
0.6906991661321394,0.0,0.0,0.0,0.0,0.16132075471698365,1.0,1.0,1.0,1.0,1.0,1.0,1.0,1.0,1
0.6052597819114752,0.0,0.03875379939209035,0.0,0.0,0.032389937106910044,1.0,1.0,1.0,1.0,1.0,1.0,1.0,1.0,1
0.5657472738935158,0.0,0.0648429584599891,0.0,0.0,0.016037735849063376,1.0,1.0,1.0,1.0,1.0,1.0,1.0,1.0,1
0.5592046183450962,0.0,0.1167679837892507,0.0,0.0,0.04842767295597342,0.969045226130654,1.0,1.0,1.0,1.0,1.0,1.0,1.0,1
0.5789608723540759,0.0,0.1816109422492398,0.0,0.0,0.04842767295597342,1.0,1.0,1.0,1.0,1.0,1.0,1.0,1.0,1
0.6118024374599065,0.0,0.1167679837892507,0.0,0.0,0.032389937106910044,1.0,1.0,1.0,1.0,1.0,1.0,1.0,1.0,1
0.6315586914688862,0.0,0.0909321175278648,0.0,0.0,0.032389937106910044,1.0,1.0,1.0,1.0,1.0,1.0,1.0,1.0,1
0.6381013470173175,0.0,0.14285714285714943,0.0,0.0,0.08081761006288347,0.9792964824120655,1.0,1.0,1.0,1.0,1.0,1.0,1.0,1
0.6183450930083378,0.0,0.22061803444781997,0.0,0.0,0.11289308176101022,1.0,1.0,1.0,1.0,1.0,1.0,1.0,1.0,1
0.6315586914688862,0.0,0.22061803444781997,0.0,0.06796212596088617,0.14528301886792028,1.0,1.0,1.0,1.0,1.0,1.0,1.0,1.0,1
0.6710711994868456,0.0,0.1557750759878539,0.0,0.0,0.16132075471698365,0.969045226130654,1.0,1.0,1.0,1.0,1.0,1.0,1.0,1
0.6250160359204548,0.0,0.10385005065856927,0.0,0.0,0.16132075471698365,0.9792964824120655,1.0,1.0,1.0,1.0,1.0,1.0,1.0,1
0.5066067992302742,0.0,0.1167679837892507,0.0,0.0,0.128930817610045,1.0,1.0,1.0,1.0,1.0,1.0,1.0,0.9271694214875995,1
0.5262347658755564,0.0,0.16869300911853533,0.0,0.11843885058230286,0.032389937106910044,0.969045226130654,1.0,1.0,1.0,1.0,1.0,1.0,0.9735278925619812,1
0.5722899294419471,0.0,0.12968591691995515,0.0,0.05080663785424364,0.0,0.8659296482412137,1.0,1.0,1.0,1.0,1.0,1.0,0.9072830578512365,1
0.41449647209749285,0.0,0.0,0.0,0.0,0.016037735849063376,0.8659296482412137,0.9322793148880179,1.0,0.9232500000000072,1.0,1.0,1.0,0.7218491735537214,1
0.23681847338037304,0.0,0.0,0.0,0.06796212596088617,0.016037735849063376,0.8040201005025126,0.7973649538867026,0.7973649538867026,0.6154999999999973,1.0,0.9383726528646991,1.0,0.7085485537190139,1
0.2565747273893528,0.0,0.025835866261408925,0.0,0.18607106331036205,0.032389937106910044,0.7525628140703529,0.8782608695652196,1.0,0.6795000000000073,1.0,0.9754453538757718,1.0,0.7616219008264474,1
0.38152661962796475,0.0,0.025835866261408925,0.0,0.1692454884365465,0.14528301886792028,0.9173869346733734,1.0,1.0,0.846250000000009,1.0,1.0,1.0,0.7218491735537214,1
0.37498396407953344,0.0,0.0,0.0,0.06796212596088617,0.14528301886792028,1.0,1.0,1.0,0.7692500000000109,1.0,0.987722676937886,1.0,0.6158316115702505,1
0.2696600384862037,0.0,0.0,0.0,0.0,0.08081761006288347,1.0,1.0,0.8919631093544036,0.6025000000000091,1.0,0.8765045739046675,1.0,0.582773760330576,1
0.335471456061574,0.0,0.0,0.0,0.25403318927124824,0.1773584905660184,0.969045226130654,1.0,1.0,0.7820000000000163,1.0,1.0,1.0,0.7682076446281031,1
0.4999358563181454,0.0,0.12968591691995515,0.0,0.38929761472733665,0.24182389937105522,0.907135678391962,1.0,1.0,1.0,1.0,1.0,1.0,0.9138688016528922,1
0.44079538165490384,0.0,0.03875379939209035,0.0,0.13559433868894538,0.11289308176101022,0.814472361809054,1.0,1.0,1.0,1.0,1.0,1.0,0.8012654958677656,1
0.30262989095574344,0.0,0.0,0.0,0.0,0.016037735849063376,0.7835175879396988,1.0,1.0,1.0,1.0,1.0,1.0,0.6689049586776838,1
0.30262989095574344,0.0,0.0,0.0,0.01715548810664253,0.016037735849063376,0.7937688442211103,0.8648221343873482,0.7702239789196232,0.9360000000000127,1.0,1.0,1.0,0.6887913223140469,1
0.30262989095574344,0.0,0.0,0.0,0.18607106331036205,0.16132075471698365,0.7937688442211103,0.6756258234519222,0.716205533596825,0.8975000000000136,1.0,1.0,1.0,0.74832128099174,1
0.29595894804361467,0.0,0.0,0.0,0.22005212629079013,0.46761006289307566,0.907135678391962,0.9188405797101464,1.0,1.0,1.0,1.0,1.0,0.728434917355377,1
0.27633098139833245,0.0,0.0,0.0,0.08478770083470173,0.4191823899371022,0.9173869346733734,1.0,1.0,0.8975000000000136,1.0,0.987722676937886,1.0,0.6291322314049578,1
0.21706221937139336,0.0,0.0,0.0,0.06796212596088617,0.0,0.7318592964824183,0.9459815546772258,0.9865612648221286,0.80775000000001,1.0,0.8765045739046675,1.0,0.6158316115702505,1
0.2696600384862037,0.0,0.0,0.0,0.338490976873093,0.0,0.6804020100502586,0.7973649538867026,0.9728590250329446,0.9487499999999954,1.0,0.9754453538757718,1.0,0.7417355371900843,1
0.4210391276459241,0.0,0.10385005065856927,0.0,0.32166540199927746,0.20974842767295707,0.7937688442211103,0.9865612648221526,1.0,1.0,1.0,1.0,1.0,0.7880940082644661,1
0.38152661962796475,0.0,0.14285714285714943,0.0,0.0,0.16132075471698365,0.8659296482412137,1.0,1.0,0.9872500000000173,1.0,1.0,1.0,0.6556043388429765,1
0.20397690827453077,0.0,0.0,0.0,0.0,0.0,0.7835175879396988,1.0,1.0,0.8335000000000037,1.0,0.9506499759268131,1.0,0.5099431818181874,1
0.14470814624759168,0.0,0.0,0.0,0.0,0.0,0.7113567839196046,0.8919631093544276,1.0,0.6410000000000082,1.0,0.6668271545498277,1.0,0.4436983471074426,1
0.19076330981398237,0.0,0.0,0.0,0.0,0.1937106918238937,0.8968844221105597,0.905401844532299,0.9865612648221286,0.6282500000000028,1.0,0.691381800674034,1.0,0.45699896694215,1
0.19730596536241365,0.0,0.025835866261408925,0.0,0.15241991356276094,0.20974842767295707,1.0,1.0,1.0,0.8205000000000154,1.0,0.987722676937886,1.0,0.5099431818181874,1
0.23681847338037304,0.0,0.14285714285714943,0.0,0.18607106331036205,0.16132075471698365,1.0,1.0,1.0,1.0,1.0,1.0,1.0,0.6225464876033021,1
0.28941629249518336,0.0,0.0909321175278648,0.0,0.15241991356276094,0.3386792452830021,1.0,1.0,1.0,1.0,1.0,1.0,1.0,0.6754907024793396,1
0.23681847338037304,0.0,0.07776089159067053,0.0,0.25403318927124824,0.5160377358490491,1.0,1.0,1.0,1.0,1.0,1.0,1.0,0.6026601239669391,1
0.19730596536241365,0.0,0.07776089159067053,0.0,0.22005212629079013,0.3710691823899407,1.0,1.0,1.0,1.0,1.0,1.0,1.0,0.5364152892561943,1
0.28941629249518336,0.0,0.0648429584599891,0.0,0.13559433868894538,0.22578616352199185,1.0,1.0,1.0,1.0,1.0,1.0,1.0,0.582773760330576,1
0.2696600384862037,0.0,0.1167679837892507,0.0,0.08478770083470173,0.1937106918238937,1.0,1.0,1.0,1.0,1.0,1.0,1.0,0.6026601239669391,1
0.12495189223861199,0.0,0.051925025329284634,0.0,0.0,0.032389937106910044,0.907135678391962,0.9594202898550732,0.81080368906455,0.8335000000000037,1.0,1.0,1.0,0.45699896694215,1
0.0854393842206526,0.0,0.0,0.0,0.0,0.0,0.8349748743718677,0.810803689064574,0.8648221343873482,0.5642500000000155,0.9583587243550824,0.8148772267693665,1.0,0.35098140495867913,1
0.1381654906991604,0.0,0.0,0.0,0.0,0.0,0.9483417085427194,0.9322793148880179,1.0,0.5,0.8854357099329785,0.7161771786230146,1.0,0.3907541322314052,1
0.151250801796023,0.0,0.07776089159067053,0.0,0.03398106298045809,0.1937106918238937,1.0,1.0,1.0,0.5384999999999991,1.0,0.8890226287915122,1.0,0.40392561983471653,1
0.14470814624759168,0.0,0.0909321175278648,0.0,0.0,0.3386792452830021,0.9483417085427194,1.0,0.9728590250329446,0.6667500000000018,1.0,0.9135772749157403,1.0,0.39733987603306087,1
0.19730596536241365,0.0,0.03875379939209035,0.0,0.01715548810664253,0.3386792452830021,0.969045226130654,0.9322793148880179,1.0,0.9360000000000127,1.0,0.9506499759268131,1.0,0.5364152892561943,1
0.22360487491981298,0.0,0.12968591691995515,0.0,0.03398106298045809,0.22578616352199185,1.0,0.9322793148880179,1.0,1.0,1.0,1.0,1.0,0.5694731404958687,1
0.12495189223861199,0.0,0.1167679837892507,0.0,0.0,0.1773584905660184,1.0,1.0,1.0,0.8847500000000081,1.0,1.0,1.0,0.40392561983471653,1
0.05259781911481031,0.0,0.0,0.0,0.01715548810664253,0.29025157232702864,1.0,1.0,1.0,0.7565000000000055,1.0,0.9754453538757718,1.0,0.3310950413223161,1
0.11840923669018069,0.0,0.025835866261408925,0.0,0.13559433868894538,0.4515723270440123,1.0,1.0,1.0,0.8335000000000037,1.0,0.9629272989889271,1.0,0.41064049586776824,1
0.151250801796023,0.0,0.0909321175278648,0.0,0.11843885058230286,0.4839622641509223,1.0,1.0,1.0,0.9872500000000173,1.0,1.0,1.0,0.476885330578513,1
0.1051956382296323,0.0,0.07776089159067053,0.0,0.18607106331036205,0.4515723270440123,1.0,1.0,1.0,1.0,1.0,1.0,1.0,0.4834710743801687,1
0.19076330981398237,0.0,0.10385005065856927,0.0,0.20322655141700458,0.35471698113206546,0.9792964824120655,0.9865612648221526,1.0,0.8590000000000145,1.0,1.0,1.0,0.49005681818182434,1
0.30262989095574344,0.0,0.2857142857142758,0.0,0.10161327570848729,0.2581761006289305,0.8349748743718677,0.6756258234519222,0.621607378129124,0.7950000000000046,1.0,1.0,1.0,0.5497159090909135,1
0.27633098139833245,0.0,0.324721377912856,0.01143241425689805,0.13559433868894538,0.2581761006289305,0.9278391959799057,0.7702239789196472,0.905401844532275,0.74375,1.0,1.0,1.0,0.5694731404958687,1
0.21706221937139336,0.0,0.1167679837892507,0.0,0.13559433868894538,0.2581761006289305,1.0,1.0,1.0,0.6410000000000082,1.0,1.0,1.0,0.46358471074380564,1
0.19730596536241365,0.0,0.025835866261408925,0.0,0.13559433868894538,0.35471698113206546,1.0,1.0,0.9594202898550732,0.6410000000000082,0.9063579118423783,0.9754453538757718,0.9672314578005088,0.39733987603306087,1
0.17754971135343398,0.0,0.1167679837892507,0.0,0.10161327570848729,0.5160377358490491,1.0,1.0,1.0,0.6025000000000091,0.9376396506195462,1.0,0.8852301790281291,0.4172262396694239,1
0.20397690827453077,0.0,0.22061803444781997,0.0,0.0,0.4355345911949489,1.0,0.9459815546772258,1.0,0.5512500000000046,0.9583587243550824,1.0,0.8689258312020498,0.46358471074380564,1
0.36844130853110213,0.0,0.3634751773049694,0.045953822013005984,0.1692454884365465,0.40314465408803885,1.0,0.9728590250329446,1.0,0.6795000000000073,1.0,1.0,1.0,0.6291322314049578,1
0.5592046183450962,0.0,0.4544072948328342,0.14951804528132978,0.44010425258158026,0.6128930817609959,1.0,1.0,1.0,0.7950000000000046,1.0,1.0,1.0,0.8410382231404917,1
0.7171263630532363,0.0,0.6104356636271548,0.06904281551221587,0.42294876447496776,0.5805031446540859,1.0,1.0,1.0,0.7820000000000163,1.0,1.0,1.0,1.0,1
0.8946760744066702,0.0,0.8961499493414308,0.2528581035642194,0.338490976873093,0.40314465408803885,0.9895477386934769,1.0,1.0,0.8975000000000136,1.0,1.0,1.0,1.0,1
0.9670301475304719,0.0,0.9741641337385911,0.43689755660165713,0.25403318927124824,0.4191823899371022,1.0,1.0,0.8379446640316294,0.9487499999999954,1.0,1.0,1.0,1.0,1
0.9341885824246297,0.0,0.870060790273555,0.26429051782111745,0.11843885058230286,0.3710691823899407,1.0,0.810803689064574,0.905401844532275,0.7950000000000046,1.0,1.0,1.0,1.0,1
0.973701090442589,0.0500000000000019,0.870060790273555,0.19547186729433577,0.08478770083470173,0.306289308176092,0.9173869346733734,0.9728590250329446,1.0,0.6667500000000018,1.0,1.0,1.0,1.0,1
1.0,0.11434540389972167,0.8832320162107262,0.3219009190764353,0.10161327570848729,0.3871069182389755,0.7937688442211103,1.0,0.9188405797101464,0.6025000000000091,1.0,1.0,1.0,1.0,1
1.0,0.021448467966573254,0.8571428571428505,0.2988119255772254,0.08478770083470173,0.4839622641509223,0.8968844221105597,0.716205533596849,0.7296442687746965,0.5769999999999982,1.0,1.0,1.0,1.0,1
1.0,0.1000000000000038,0.9090678824721352,0.3102443398341235,0.25403318927124824,0.46761006289307566,0.9483417085427194,0.6890645586297937,0.9325428194993304,0.6282500000000028,1.0,1.0,1.0,1.0,1
1.0,0.25710306406685224,1.0,0.655234252409789,0.32166540199927746,0.24182389937105522,0.938090452261308,0.8513833992095008,0.905401844532275,0.5642500000000155,1.0,1.0,1.0,1.0,1
1.0,0.23565459610027897,1.0,0.7585743106926787,0.15241991356276094,0.0,1.0,0.7973649538867026,0.4189723320158027,0.3975000000000136,1.0,1.0,1.0,1.0,1
1.0,0.14999999999999936,1.0,0.5288052006276691,0.15241991356276094,0.1773584905660184,1.0,0.6621870882740508,0.2566534914360956,0.30775000000001,1.0,1.0,1.0,1.0,1
1.0,0.1428969359331503,0.9222391084093065,0.4252409773593453,0.38929761472733665,0.4999999999999857,1.0,0.6890645586297937,0.5947299077733812,0.28200000000001635,1.0,1.0,1.0,1.0,1
1.0,0.0356545961002777,0.8181357649442704,0.2988119255772254,0.20322655141700458,0.5484276729559591,1.0,0.7973649538867026,0.81080368906455,0.28200000000001635,1.0,1.0,1.0,1.0,1
1.0,0.0,0.5324214792299945,0.05738623626990404,0.0,0.4515723270440123,1.0,0.8242424242424214,0.7567852437417758,0.4360000000000127,1.0,1.0,1.0,1.0,1
1.0,0.04289693593314651,0.545339412360676,0.16095045953822784,0.3045099138926649,0.4999999999999857,1.0,0.8242424242424214,0.7836627140974947,0.5257500000000164,1.0,1.0,1.0,1.0,1
1.0,0.16434540389972357,0.870060790273555,0.4252409773593453,0.6093497410181268,0.6773584905660327,1.0,0.8379446640316294,0.8379446640316294,0.4872500000000173,1.0,1.0,1.0,1.0,1
1.0,0.0928969359331484,0.7272036474164055,0.3102443398341235,0.338490976873093,0.7097484276729428,1.0,0.810803689064574,0.81080368906455,0.5642500000000155,1.0,1.0,1.0,1.0,1
1.0,0.0356545961002777,0.5975177304964504,0.06904281551221587,0.13559433868894538,0.4355345911949489,1.0,0.7027667984189776,0.6081686429512526,0.6154999999999973,1.0,1.0,1.0,1.0,1
1.0,0.0643454038997261,0.8181357649442704,0.11499663752522185,0.25403318927124824,0.1937106918238937,0.9587939698492426,0.4729907773386009,0.3243741765480777,0.4745000000000118,1.0,1.0,1.0,1.0,1
1.0,0.07144846796657515,0.7532928064842813,0.2528581035642194,0.2876843390188493,0.3386792452830021,0.8866331658291483,0.3243741765481017,0.283794466403151,0.3847500000000082,1.0,1.0,1.0,1.0,1
1.0,0.0,0.41565349544072083,0.09190764402601197,0.13559433868894538,0.5644654088050225,0.969045226130654,0.4052700922266188,0.39183135704874733,0.3847500000000082,1.0,1.0,1.0,1.0,1
0.9012187299551015,0.0,0.1816109422492398,0.0,0.0,0.7097484276729428,1.0,0.4729907773386009,0.3649538866930045,0.24375,0.9583587243550824,0.9135772749157403,1.0,0.8675103305785105,1
0.8815907633098077,0.0,0.1167679837892507,0.0,0.0,0.8386792452830164,1.0,0.5944664031620688,0.527009222661399,0.19225000000001274,0.9896404631322504,0.9506499759268131,1.0,0.9138688016528922,1
0.9670301475304719,0.0,0.324721377912856,0.0,0.13559433868894538,0.7578616352201043,1.0,0.8513833992095008,0.9459815546772018,0.4360000000000127,1.0,1.0,1.0,1.0,1
0.9802437459910203,0.0,0.5065856129685856,0.0,0.23687770116460571,0.6128930817609959,1.0,0.8782608695652196,0.9865612648221286,0.5512500000000046,1.0,1.0,1.0,1.0,1
1.0,0.0500000000000019,0.4934143870314144,0.05738623626990404,0.3045099138926649,0.6933962264150961,0.9895477386934769,0.5944664031620688,0.6893280632411062,0.5384999999999991,1.0,1.0,1.0,1.0,1
1.0,0.0856545961002796,0.545339412360676,0.14951804528132978,0.37247203985352106,0.7257861635220061,1.0,0.4729907773386009,0.716205533596825,0.7307500000000118,1.0,1.0,1.0,1.0,1
1.0,0.0,0.5585106382978703,0.0228648285137961,0.23687770116460571,0.4999999999999857,0.9587939698492426,0.4324110671936741,0.7567852437417758,0.7307500000000118,1.0,1.0,1.0,1.0,1
0.9539448364336093,0.0,0.46757852077000545,0.0,0.0,0.3871069182389755,0.84522613065327,0.4052700922266188,0.5947299077733812,0.44874999999999543,1.0,1.0,1.0,1.0,1
1.0,0.0,0.4934143870314144,0.0,0.0,0.46761006289307566,0.9278391959799057,0.7027667984189776,0.7296442687746965,0.4872500000000173,1.0,1.0,1.0,1.0,1
1.0,0.0,0.5195035460992901,0.0,0.05080663785424364,0.5320754716981124,1.0,0.9594202898550732,0.8919631093544036,0.6282500000000028,1.0,1.0,1.0,1.0,1
0.9604874919820406,0.0,0.5195035460992901,0.0,0.01715548810664253,0.5320754716981124,1.0,0.7836627140974947,0.621607378129124,0.41024999999999634,1.0,1.0,1.0,0.9735278925619812,1
0.9539448364336093,0.0,0.5324214792299945,0.0,0.0,0.4191823899371022,0.8866331658291483,0.6756258234519222,0.44584980237154553,0.24375,1.0,1.0,1.0,1.0,1
0.9670301475304719,0.0,0.5195035460992901,0.0,0.01715548810664253,0.4191823899371022,0.969045226130654,0.8782608695652196,0.6756258234518983,0.3847500000000082,1.0,1.0,1.0,1.0,1
0.9670301475304719,0.0,0.4934143870314144,0.0,0.2876843390188493,0.5805031446540859,1.0,0.9188405797101464,0.6621870882740508,0.5384999999999991,1.0,1.0,1.0,1.0,1
0.9341885824246297,0.0143454038997242,0.5065856129685856,0.0,0.338490976873093,0.6773584905660327,1.0,0.7433465085639044,0.527009222661399,0.6025000000000091,1.0,1.0,1.0,1.0,1
0.8551635663887108,0.0,0.48049645390070994,0.0,0.22005212629079013,0.7578616352201043,1.0,0.8782608695652196,0.9325428194993304,0.6922500000000127,1.0,1.0,1.0,1.0,1
0.7828094932649091,0.0,0.41565349544072083,0.0,0.15241991356276094,0.8871069182389898,1.0,1.0,1.0,0.7950000000000046,1.0,1.0,1.0,0.9204545454545479,1
0.7960230917254693,0.0,0.4024822695035496,0.0,0.20322655141700458,0.8707547169811145,1.0,1.0,1.0,0.846250000000009,1.0,1.0,1.0,0.9138688016528922,1
0.8881334188582389,0.0,0.5065856129685856,0.0,0.23687770116460571,0.7902515723270429,1.0,1.0,0.9594202898550732,0.8590000000000145,1.0,1.0,1.0,1.0,1
0.9407312379730609,0.0,0.6494427558257351,0.01143241425689805,0.20322655141700458,0.7097484276729428,1.0,1.0,1.0,0.846250000000009,1.0,1.0,1.0,0.9934142561983443,1
0.861834509300828,0.0,0.5975177304964504,0.0,0.08478770083470173,0.5320754716981124,1.0,1.0,1.0,0.7307500000000118,1.0,1.0,1.0,0.8808109504132178,1
0.7236690186016675,0.0,0.41565349544072083,0.0,0.03398106298045809,0.4839622641509223,1.0,0.9188405797101464,0.6621870882740508,0.5642500000000155,1.0,1.0,1.0,0.8277376033057844,1
0.6776138550352768,0.0,0.3895643363728451,0.0,0.05080663785424364,0.5968553459119326,1.0,0.9322793148880179,0.6487483530961794,0.4745000000000118,1.0,1.0,1.0,0.7815082644628104,1
0.7367543296985185,0.0,0.5195035460992901,0.0,0.20322655141700458,0.6128930817609959,1.0,1.0,1.0,0.5769999999999982,1.0,1.0,1.0,0.79467975206611,1
0.7828094932649091,0.0,0.5975177304964504,0.0,0.3045099138926649,0.5968553459119326,1.0,1.0,1.0,0.7692500000000109,1.0,1.0,1.0,0.8740960743801661,1
0.7236690186016675,0.0,0.5065856129685856,0.0,0.25403318927124824,0.7902515723270429,1.0,1.0,0.8513833992094768,0.6410000000000082,1.0,1.0,1.0,0.8543388429752109,1
0.7302116741500988,0.0,0.5065856129685856,0.0,0.1692454884365465,0.9031446540880531,1.0,1.0,0.6893280632411062,0.35900000000001453,1.0,1.0,1.0,0.8808109504132178,1
0.9012187299551015,0.12144846796657706,0.7013677811550197,0.08047522976911392,0.2708587641450338,0.7257861635220061,1.0,1.0,1.0,0.5384999999999991,1.0,1.0,1.0,1.0,1
1.0,0.1928969359331522,0.9609929078014199,0.19547186729433577,0.4909108904358239,0.6933962264150961,1.0,0.8782608695652196,1.0,0.7950000000000046,1.0,1.0,1.0,1.0,1
0.9670301475304719,0.0928969359331484,0.9351570415400109,0.10334005828288963,0.4909108904358239,0.7902515723270429,1.0,0.8242424242424214,0.6893280632411062,0.7180000000000064,1.0,1.0,1.0,0.9735278925619812,1
0.8881334188582389,0.0356545961002777,0.675278622087121,0.09190764402601197,0.3045099138926649,0.8062893081760777,1.0,0.9594202898550732,0.8513833992094768,0.7052500000000009,1.0,1.0,1.0,0.9934142561983443,1
0.8881334188582389,0.0500000000000019,0.5324214792299945,0.06904281551221587,0.338490976873093,0.9191823899370879,1.0,1.0,1.0,0.8205000000000154,1.0,1.0,1.0,1.0,1
0.8223220012828686,0.0,0.5065856129685856,0.0,0.5585431031638831,1.0,1.0,1.0,0.8782608695652196,0.6282500000000028,1.0,1.0,1.0,0.8277376033057844,1
0.7434252726106473,0.0,0.46757852077000545,0.045953822013005984,0.6093497410181268,1.0,1.0,0.9594202898550732,0.6081686429512526,0.29500000000000454,1.0,1.0,0.9344629156010176,0.7549070247933839,1
0.8157793457344489,0.1928969359331522,0.4544072948328342,0.20690428155123383,0.5753686780376986,0.8386792452830164,1.0,0.8919631093544276,0.905401844532275,0.29500000000000454,1.0,0.9383726528646991,0.9426150895140646,0.79467975206611,1
0.8946760744066702,0.2642061281337076,0.4934143870314144,0.20690428155123383,0.5413876150572706,0.6449685534591226,1.0,0.905401844532299,1.0,0.5384999999999991,1.0,1.0,0.9836956521739062,0.8145661157024848,1
0.8355355997434286,0.11434540389972167,0.5195035460992901,0.01143241425689805,0.3045099138926649,0.7097484276729428,1.0,1.0,1.0,0.7052500000000009,1.0,1.0,1.0,0.8543388429752109,1
0.7828094932649091,0.0500000000000019,0.4934143870314144,0.0,0.18607106331036205,0.8547169811320511,1.0,1.0,1.0,0.7307500000000118,1.0,1.0,1.0,0.8808109504132178,1
0.8157793457344489,0.18565459610027707,0.5195035460992901,0.11499663752522185,0.37247203985352106,0.6773584905660327,1.0,0.9188405797101464,0.8648221343873482,0.6025000000000091,1.0,1.0,1.0,0.8740960743801661,1
0.8223220012828686,0.25000000000000316,0.545339412360676,0.19547186729433577,0.44010425258158026,0.4999999999999857,0.9483417085427194,0.3649538866930285,0.24321475625822417,0.3847500000000082,1.0,1.0,0.950927109974415,0.8344524793388478,1
0.7960230917254693,0.1356545961002815,0.48049645390070994,0.01143241425689805,0.338490976873093,0.6773584905660327,1.0,0.4324110671936741,0.22977602108037673,0.29500000000000454,0.9479991874873144,1.0,0.8196930946291467,0.79467975206611,1
0.8223220012828686,0.0,0.4024822695035496,0.0,0.23687770116460571,0.822641509433953,1.0,0.8513833992095008,0.6893280632411062,0.30775000000001,0.9376396506195462,1.0,0.7950767263427024,0.8211518595041287,1
0.8815907633098077,0.0928969359331484,0.545339412360676,0.01143241425689805,0.20322655141700458,0.7418238993710695,1.0,0.9728590250329446,0.7296442687746965,0.2692500000000109,0.9479991874873144,1.0,0.9016943734015265,0.8939824380165291,1
0.9670301475304719,0.33565459610028275,0.8181357649442704,0.14951804528132978,0.37247203985352106,0.7257861635220061,1.0,0.9188405797101464,0.7433465085639044,0.3462500000000091,1.0,1.0,0.9263107416879707,0.9735278925619812,1
1.0,0.43565459610028023,0.9351570415400109,0.28737951132032735,0.5585431031638831,0.822641509433953,1.0,0.9865612648221526,1.0,0.5257500000000164,1.0,1.0,1.0,1.0,1
1.0,0.4214484679665758,0.9609929078014199,0.3678547410894413,0.5077364653096395,0.7578616352201043,1.0,1.0,1.0,0.6539999999999964,1.0,1.0,1.0,1.0,1
1.0,0.4499999999999981,0.8832320162107262,0.37928715534633933,0.4909108904358239,0.7097484276729428,1.0,0.8513833992095008,0.7567852437417758,0.5897500000000037,1.0,1.0,1.0,1.0,1
1.0,0.43565459610028023,0.7532928064842813,0.37928715534633933,0.5413876150572706,0.9191823899370879,1.0,0.7027667984189776,0.5675889328063258,0.32050000000001544,1.0,1.0,0.9016943734015265,0.9138688016528922,1
1.0,0.3785515320334293,0.7532928064842813,0.28737951132032735,0.42294876447496776,0.9836477987421247,1.0,0.7836627140974947,0.7702239789196232,0.32050000000001544,1.0,1.0,0.9181585677749383,1.0,1
1.0,0.35000000000000064,0.870060790273555,0.2183366958081115,0.44010425258158026,0.6449685534591226,1.0,0.810803689064574,0.8648221343873482,0.5769999999999982,1.0,1.0,1.0,1.0,1
1.0,0.3785515320334293,0.8961499493414308,0.3564223268325432,0.44010425258158026,0.5160377358490491,1.0,0.7702239789196472,0.7433465085639044,0.5897500000000037,1.0,1.0,1.0,1.0,1
1.0,0.38565459610027836,0.7922998986828614,0.3447657475902314,0.25403318927124824,0.7418238993710695,1.0,0.7567852437417758,0.621607378129124,0.41024999999999634,1.0,1.0,0.9426150895140646,0.9668130165289296,1
1.0,0.3785515320334293,0.7403748733535999,0.14951804528132978,0.22005212629079013,0.9031446540880531,1.0,0.8242424242424214,0.7567852437417758,0.44874999999999543,1.0,1.0,1.0,1.0,1
1.0,0.4214484679665758,0.8571428571428505,0.3102443398341235,0.38929761472733665,0.9031446540880531,1.0,0.9594202898550732,1.0,0.6795000000000073,1.0,1.0,1.0,1.0,1
1.0,0.5071030640668553,1.0,0.563326608383777,0.5413876150572706,0.9191823899370879,1.0,1.0,1.0,0.7820000000000163,1.0,1.0,1.0,1.0,1
1.0,0.45710306406685347,0.9609929078014199,0.43689755660165713,0.45692982745539584,0.9031446540880531,1.0,1.0,0.8379446640316294,0.5127500000000055,1.0,1.0,1.0,1.0,1
1.0,0.2642061281337076,0.8442249240121461,0.24142568930734176,0.23687770116460571,0.8062893081760777,1.0,0.8513833992095008,0.6487483530961794,0.17950000000000726,0.6355880560633809,1.0,0.844309462915591,0.9271694214875995,1
0.9539448364336093,0.2142061281337057,0.7922998986828614,0.2988119255772254,0.20322655141700458,0.6613207547169694,1.0,0.6890645586297937,0.6756258234518983,0.17950000000000726,0.3542555352427332,1.0,0.7132352941176408,0.8808109504132178,1
0.9276459268761983,0.2928969359331497,0.6494427558257351,0.41380856310244724,0.38929761472733665,0.6933962264150961,1.0,0.7973649538867026,0.8513833992094768,0.3975000000000136,0.3542555352427332,1.0,0.7706202046035762,0.8145661157024848,1
0.8749198203976906,0.23565459610027897,0.5065856129685856,0.2528581035642194,0.4061231896011522,0.9676100628930614,1.0,1.0,1.0,0.5512500000000046,0.36461507211050126,0.987722676937886,0.7869245524296701,0.7616219008264474,1
0.8683771648492592,0.12144846796657706,0.48049645390070994,0.0228648285137961,0.2708587641450338,1.0,1.0,0.9459815546772258,1.0,0.5,0.31261425959781564,1.0,0.680306905370846,0.7815082644628104,1
0.8486209108402796,0.1356545961002815,0.48049645390070994,0.045953822013005984,0.23687770116460571,0.9352201257861513,1.0,0.9188405797101464,1.0,0.5,0.29169205768839734,1.0,0.6558503836317053,0.8211518595041287,1
0.7894804361770379,0.2142061281337057,0.48049645390070994,0.14951804528132978,0.35531655174690857,1.0,1.0,1.0,1.0,0.5897500000000037,0.2604103189112294,1.0,0.746003836317132,0.8012654958677656,1
0.7499679281590785,0.17144846796657262,0.4934143870314144,0.09190764402601197,0.2876843390188493,0.9836477987421247,1.0,1.0,0.7836627140974947,0.4745000000000118,0.2604103189112294,1.0,0.7869245524296701,0.7616219008264474,1
0.7697241821680583,0.07855153203343054,0.5065856129685856,0.045953822013005984,0.05080663785424364,0.7097484276729428,1.0,0.7836627140974947,0.6621870882740508,0.2052500000000009,0.2293317083079436,1.0,0.746003836317132,0.7549070247933839,1
0.7762668377164779,0.11434540389972167,0.5065856129685856,0.09190764402601197,0.05080663785424364,0.5968553459119326,1.0,0.8782608695652196,0.8648221343873482,0.23075000000001183,0.09384521633150379,0.9629272989889271,0.6886189258311964,0.7549070247933839,1
0.7828094932649091,0.1428969359331503,0.5714285714285747,0.11499663752522185,0.23687770116460571,0.7257861635220061,1.0,1.0,1.0,0.44874999999999543,0.11456429006703997,1.0,0.7295396419437346,0.7682076446281031,1
0.7828094932649091,0.0928969359331484,0.5714285714285747,0.10334005828288963,0.15241991356276094,0.7097484276729428,1.0,1.0,1.0,0.37174999999999725,0.1458460288442079,1.0,0.746003836317132,0.774793388429747,1
0.7697241821680583,0.1000000000000038,0.4934143870314144,0.06904281551221587,0.0,0.5160377358490491,0.9483417085427194,0.8513833992095008,0.6350461133069716,0.1667500000000018,0.05220394068656778,0.8642272508425534,0.6229219948849106,0.728434917355377,1
0.8091084028223201,0.18565459610027707,0.5324214792299945,0.14951804528132978,0.15241991356276094,0.46761006289307566,0.8866331658291483,0.6621870882740508,0.4864295125164723,0.14100000000000817,0.07292301442210394,0.9260953298025849,0.631234015345261,0.7616219008264474,1
0.9012187299551015,0.2285515320334299,0.6104356636271548,0.3219009190764353,0.2708587641450338,0.4839622641509223,0.9278391959799057,0.6081686429512526,0.6487483530961794,0.32050000000001544,0.20840950639854375,1.0,0.746003836317132,0.8012654958677656,1
0.8683771648492592,0.17144846796657262,0.545339412360676,0.2528581035642194,0.11843885058230286,0.4515723270440123,0.8659296482412137,0.5944664031620688,0.6893280632411062,0.3975000000000136,0.15640869388583967,1.0,0.7132352941176408,0.7019628099173583,1
0.7367543296985185,0.12144846796657706,0.4544072948328342,0.06904281551221587,0.0,0.4515723270440123,0.8349748743718677,0.6756258234519222,0.6621870882740508,0.28200000000001635,0.010562665041631763,0.8642272508425534,0.6147698209718636,0.6225464876033021,1
0.7236690186016675,0.15710306406685476,0.46757852077000545,0.13786146603899757,0.05080663785424364,0.4515723270440123,0.969045226130654,0.7973649538867026,0.6621870882740508,0.14100000000000817,0.0,0.8025999037072743,0.6066176470588167,0.6556043388429765,1
0.8025657472738889,0.20000000000000126,0.5065856129685856,0.2528581035642194,0.10161327570848729,0.3871069182389755,1.0,0.810803689064574,0.5135704874835276,0.07699999999999818,0.0,0.8271545498314805,0.57384910485934,0.6689049586776838,1
0.7697241821680583,0.17855153203342802,0.5065856129685856,0.14951804528132978,0.0,0.46761006289307566,1.0,0.8242424242424214,0.527009222661399,0.012750000000005457,0.0,0.8271545498314805,0.5164641943734046,0.6092458677685948,1
0.6776138550352768,0.10710306406685285,0.48049645390070994,0.06904281551221587,0.0,0.7097484276729428,1.0,0.9459815546772258,0.81080368906455,0.0,0.0,0.8271545498314805,0.49184782608696037,0.5694731404958687,1
0.6446440025657488,0.1000000000000038,0.4544072948328342,0.1264290517821199,0.06796212596088617,0.6449685534591226,1.0,1.0,1.0,0.2692500000000109,0.0,0.8765045739046675,0.5164641943734046,0.6291322314049578,1
0.7039127645926878,0.15710306406685476,0.4934143870314144,0.13786146603899757,0.15241991356276094,0.4839622641509223,1.0,1.0,1.0,0.5512500000000046,0.0,0.987722676937886,0.6229219948849106,0.7417355371900843,1
0.7236690186016675,0.12144846796657706,0.545339412360676,0.13786146603899757,0.1692454884365465,0.7097484276729428,1.0,1.0,0.8782608695652196,0.41024999999999634,0.03128173877716793,1.0,0.6475383631713548,0.6887913223140469,1
0.6841565105837082,0.028551532033428646,0.6104356636271548,0.13786146603899757,0.1692454884365465,0.8386792452830164,1.0,0.7836627140974947,0.6350461133069716,0.12825000000000272,0.0,0.9260953298025849,0.5164641943734046,0.5628873966942131,1
0.6776138550352768,0.05710306406685729,0.6494427558257351,0.18381528805200356,0.20322655141700458,0.6449685534591226,1.0,0.716205533596849,0.7027667984189776,0.05125000000000455,0.0,0.8642272508425534,0.4426150895140718,0.6158316115702505,1
0.6710711994868456,0.15710306406685476,0.5585106382978703,0.27594709706344966,0.32166540199927746,0.6933962264150961,1.0,0.7027667984189776,0.6621870882740508,0.11549999999999727,0.0,0.9506499759268131,0.5410805626598489,0.7019628099173583,1
0.6513149454778658,0.16434540389972357,0.4544072948328342,0.26429051782111745,0.44010425258158026,0.8062893081760777,1.0,0.7296442687747204,0.7702239789196232,0.21800000000000636,0.0,0.987722676937886,0.6558503836317053,0.6689049586776838,1
0.6183450930083378,0.0928969359331484,0.4285714285714253,0.1264290517821199,0.37247203985352106,0.5968553459119326,1.0,0.905401844532299,0.9188405797101464,0.3335000000000036,0.0,0.9383726528646991,0.6558503836317053,0.6225464876033021,1
0.5855035279024955,0.1000000000000038,0.41565349544072083,0.09190764402601197,0.1692454884365465,0.4191823899371022,0.9483417085427194,0.8782608695652196,0.7296442687746965,0.23075000000001183,0.0,0.9260953298025849,0.6147698209718636,0.6026601239669391,1
0.5657472738935158,0.0928969359331484,0.46757852077000545,0.09190764402601197,0.05080663785424364,0.4515723270440123,0.9278391959799057,0.7433465085639044,0.5947299077733812,0.03849999999999909,0.0,0.9012999518536262,0.57384910485934,0.5628873966942131,1
0.6183450930083378,0.028551532033428646,0.4934143870314144,0.03452140775610794,0.11843885058230286,0.4515723270440123,0.969045226130654,0.7836627140974947,0.7567852437417758,0.03849999999999909,0.0,0.8271545498314805,0.5164641943734046,0.5628873966942131,1
0.6578576010262972,0.05710306406685729,0.2986322188449803,0.0,0.13559433868894538,0.6613207547169694,1.0,0.9459815546772258,0.9188405797101464,0.25650000000000545,0.0,0.7778045257582936,0.5327685421994839,0.582773760330576,1
0.5985888389993581,0.11434540389972167,0.03875379939209035,0.0,0.15241991356276094,0.9031446540880531,1.0,1.0,0.9865612648221286,0.41024999999999634,0.0,0.7284545016851067,0.6393861892583079,0.5960743801652952,1
0.6183450930083378,0.0643454038997261,0.0909321175278648,0.0,0.2876843390188493,0.7578616352201043,1.0,1.0,1.0,0.3975000000000136,0.0,0.7407318247472209,0.6886189258311964,0.6424328512396652,1
0.7104554201411192,0.04289693593314651,0.324721377912856,0.0,0.11843885058230286,0.4191823899371022,0.9587939698492426,0.9322793148880179,0.9728590250329446,0.35900000000001453,0.0,0.7900818488204078,0.6393861892583079,0.6424328512396652,1
0.6710711994868456,0.028551532033428646,0.25962512664640014,0.0,0.0,0.1937106918238937,0.7423115577889505,0.6756258234519222,0.7973649538867026,0.24375,0.0,0.691381800674034,0.5410805626598489,0.5497159090909135,1
0.5262347658755564,0.0,0.1167679837892507,0.0,0.0,0.1937106918238937,0.7423115577889505,0.6487483530961794,0.7702239789196232,0.24375,0.0,0.580404429465568,0.45907928388746916,0.476885330578513,1
0.4868505452212945,0.07144846796657515,0.0,0.0,0.2708587641450338,0.3710691823899407,0.8556783919598023,0.7567852437417758,0.8242424242424214,0.35900000000001453,0.0,0.5678863745787233,0.4836956521739134,0.4701704545454613,1
0.4670942912123148,0.0928969359331484,0.0,0.0,0.1692454884365465,0.46761006289307566,0.8349748743718677,0.8379446640316294,0.8379446640316294,0.35900000000001453,0.0,0.580404429465568,0.5573849104859282,0.5033574380165318,1
0.4210391276459241,0.0,0.0,0.0,0.08478770083470173,0.46761006289307566,0.814472361809054,0.905401844532299,0.7702239789196232,0.30775000000001,0.0,0.642031776600869,0.5655370843989751,0.5364152892561943,1
0.4999358563181454,0.0,0.10385005065856927,0.0,0.22005212629079013,0.5484276729559591,0.8968844221105597,0.9459815546772258,0.7567852437417758,0.30775000000001,0.0,0.8025999037072743,0.5164641943734046,0.5497159090909135,1
0.6052597819114752,0.021448467966573254,0.24670719351569567,0.0,0.15241991356276094,0.5644654088050225,0.8866331658291483,0.8648221343873482,0.7567852437417758,0.30775000000001,0.0,0.9383726528646991,0.5327685421994839,0.6291322314049578,1
0.5920461834509267,0.0643454038997261,0.4024822695035496,0.0,0.11843885058230286,0.4191823899371022,0.876180904522616,0.9188405797101464,0.9728590250329446,0.3847500000000082,0.02092220190939985,1.0,0.6475383631713548,0.7019628099173583,1
0.5262347658755564,0.0356545961002777,0.3376393110435605,0.0,0.18607106331036205,0.5805031446540859,1.0,1.0,1.0,0.6154999999999973,0.21876904326629337,1.0,0.746003836317132,0.6357179752066136,1
0.4933932007697258,0.07144846796657515,0.22061803444781997,0.0,0.1692454884365465,0.7257861635220061,1.0,1.0,1.0,0.7307500000000118,0.20840950639854375,1.0,0.7376918158567815,0.5761880165289321,1
0.5196921103271251,0.11434540389972167,0.4024822695035496,0.0,0.13559433868894538,0.5644654088050225,1.0,1.0,1.0,0.7307500000000118,0.09384521633150379,1.0,0.7213874680306877,0.6357179752066136,1
0.5459910198845361,0.021448467966573254,0.5065856129685856,0.0,0.15241991356276094,0.5320754716981124,1.0,1.0,1.0,0.5897500000000037,0.08348567946373571,1.0,0.7132352941176408,0.6887913223140469,1
0.5592046183450962,0.0,0.3505572441742649,0.0,0.20322655141700458,0.6773584905660327,1.0,1.0,0.8648221343873482,0.41024999999999634,0.07292301442210394,1.0,0.6967710997442433,0.6887913223140469,1
0.5525336754329674,0.0,0.22061803444781997,0.0,0.25403318927124824,0.5484276729559591,1.0,1.0,0.9325428194993304,0.4615000000000009,0.04164127564493601,1.0,0.6886189258311964,0.6225464876033021,1
0.5066067992302742,0.04289693593314651,0.1167679837892507,0.0,0.2708587641450338,0.3386792452830021,0.969045226130654,0.8513833992095008,0.9728590250329446,0.5257500000000164,0.0,0.8519499277804393,0.680306905370846,0.5563016528925692,1
0.4999358563181454,0.0356545961002777,0.0909321175278648,0.0,0.3045099138926649,0.40314465408803885,1.0,0.810803689064574,0.6756258234518983,0.4360000000000127,0.0,0.6543090996629611,0.6721547314577991,0.5628873966942131,1
0.5394483643361165,0.007103064066855389,0.14285714285714943,0.0,0.2708587641450338,0.46761006289307566,1.0,0.7973649538867026,0.3649538866930045,0.19225000000001274,0.0,0.7161771786230146,0.5492327365728958,0.5298295454545504,1
0.4868505452212945,0.0,0.051925025329284634,0.0,0.13559433868894538,0.3710691823899407,0.969045226130654,0.7433465085639044,0.44584980237154553,0.0,0.0,0.7161771786230146,0.36892583120204253,0.39733987603306087,1
0.4473380372033351,0.0643454038997261,0.051925025329284634,0.0,0.25403318927124824,0.3386792452830021,1.0,0.810803689064574,0.6893280632411062,0.06425000000001546,0.0,0.7284545016851067,0.45092710997442226,0.476885330578513,1
0.5525336754329674,0.17855153203342802,0.24670719351569567,0.0,0.35531655174690857,0.5320754716981124,1.0,0.9728590250329446,0.8648221343873482,0.4360000000000127,0.0,0.8890226287915122,0.7049232736572904,0.6621900826446322,1
0.5592046183450962,0.0928969359331484,0.4285714285714253,0.0,0.11843885058230286,0.6773584905660327,1.0,1.0,0.9594202898550732,0.5642500000000155,0.02092220190939985,0.9629272989889271,0.7295396419437346,0.6225464876033021,1
0.4736369467607461,0.0,0.48049645390070994,0.0,0.0,0.5968553459119326,1.0,1.0,0.9459815546772018,0.3462500000000091,0.0,0.8765045739046675,0.6066176470588167,0.5033574380165318,1
0.5131494547787055,0.0643454038997261,0.44148936170212977,0.0,0.06796212596088617,0.4999999999999857,1.0,1.0,0.8513833992094768,0.3462500000000091,0.0,0.8396726047183471,0.6147698209718636,0.5694731404958687,1
0.5985888389993581,0.15710306406685476,0.4544072948328342,0.0,0.13559433868894538,0.5320754716981124,1.0,1.0,0.9728590250329446,0.6154999999999973,0.1458460288442079,0.9629272989889271,0.7213874680306877,0.74832128099174,1
0.5789608723540759,0.15710306406685476,0.5195035460992901,0.0,0.15241991356276094,0.6128930817609959,1.0,1.0,1.0,0.7565000000000055,0.17712776762137583,1.0,0.8033887468030674,0.7549070247933839,1
0.4605516356638835,0.11434540389972167,0.3505572441742649,0.0,0.10161327570848729,0.5968553459119326,0.969045226130654,1.0,1.0,0.5642500000000155,0.06256347755433586,1.0,0.7295396419437346,0.5761880165289321,1
0.38152661962796475,0.04289693593314651,0.16869300911853533,0.0,0.08478770083470173,0.5320754716981124,0.9483417085427194,1.0,0.9325428194993304,0.41024999999999634,0.0,0.8025999037072743,0.5573849104859282,0.476885330578513,1
0.32892880051314277,0.0,0.07776089159067053,0.0,0.15241991356276094,0.40314465408803885,1.0,0.8782608695652196,0.905401844532275,0.44874999999999543,0.0,0.7655272026962014,0.45092710997442226,0.41064049586776824,1
0.2433611289287927,0.0,0.0,0.0,0.03398106298045809,0.20974842767295707,0.9483417085427194,0.7567852437417758,0.5404479578392706,0.28200000000001635,0.0,0.7161771786230146,0.45092710997442226,0.35098140495867913,1
0.23027581783194176,0.0,0.0,0.0,0.0,0.0644654088050368,0.7937688442211103,0.6621870882740508,0.2566534914360956,0.0,0.0,0.6297544535387549,0.4836956521739134,0.43711260330578694,1
0.3223861449647231,0.0,0.0,0.0,0.0,0.14528301886792028,0.7937688442211103,0.6890645586297937,0.5675889328063258,0.0,0.0,0.7038998555609005,0.49999999999999273,0.5364152892561943,1
0.34868505452212245,0.0,0.16869300911853533,0.0,0.03398106298045809,0.29025157232702864,0.969045226130654,0.7433465085639044,0.716205533596825,0.2052500000000009,0.0,0.7161771786230146,0.45907928388746916,0.43711260330578694,1
0.28941629249518336,0.0,0.07776089159067053,0.0,0.0,0.306289308176092,1.0,0.7702239789196472,0.5404479578392706,0.11549999999999727,0.0,0.6297544535387549,0.3606138107416921,0.3642820247933865,1
0.30262989095574344,0.0,0.025835866261408925,0.0,0.0,0.40314465408803885,0.9792964824120655,0.810803689064574,0.7433465085639044,0.06425000000001546,0.0,0.691381800674034,0.40984654731458064,0.5033574380165318,1
0.4210391276459241,0.007103064066855389,0.16869300911853533,0.0,0.10161327570848729,0.4999999999999857,1.0,0.8513833992095008,1.0,0.37174999999999725,0.0,0.8519499277804393,0.5901534526854194,0.5893595041322317,1
0.48017960230916573,0.1000000000000038,0.31155015197568475,0.0,0.10161327570848729,0.46761006289307566,1.0,0.9728590250329446,1.0,0.5642500000000155,0.11456429006703997,0.9506499759268131,0.6967710997442433,0.5628873966942131,1
0.4473380372033351,0.0928969359331484,0.37664640324214066,0.0,0.03398106298045809,0.4515723270440123,1.0,1.0,0.8919631093544036,0.5257500000000164,0.10420475319927187,1.0,0.7295396419437346,0.5893595041322317,1
0.4736369467607461,0.12855153203342612,0.4024822695035496,0.0,0.08478770083470173,0.4355345911949489,1.0,0.905401844532299,0.9594202898550732,0.4872500000000173,0.12512695510867172,1.0,0.7623081841432258,0.6490185950413209,1
0.4933932007697258,0.1356545961002815,0.31155015197568475,0.0,0.11843885058230286,0.4839622641509223,1.0,0.9322793148880179,0.9325428194993304,0.5384999999999991,0.15640869388583967,1.0,0.7541560102301789,0.6158316115702505,1
0.3947402180885131,0.04289693593314651,0.1167679837892507,0.0,0.08478770083470173,0.4999999999999857,1.0,1.0,0.9325428194993304,0.6025000000000091,0.1354864919764398,1.0,0.7623081841432258,0.5694731404958687,1
0.34868505452212245,0.021448467966573254,0.07776089159067053,0.0,0.01715548810664253,0.46761006289307566,1.0,0.9594202898550732,0.8379446640316294,0.5512500000000046,0.07292301442210394,0.8148772267693665,0.7541560102301789,0.5364152892561943,1
0.4012828736369444,0.04289693593314651,0.14285714285714943,0.0,0.05080663785424364,0.4191823899371022,0.9278391959799057,0.5810276679841972,0.4595520421607295,0.29500000000000454,0.0,0.6543090996629611,0.6066176470588167,0.45699896694215,1
0.335471456061574,0.0,0.0648429584599891,0.0,0.15241991356276094,0.4191823899371022,0.7937688442211103,0.5404479578392706,0.4864295125164723,0.08975000000000363,0.0,0.6668271545498277,0.4836956521739134,0.40392561983471653,1
0.28941629249518336,0.0,0.051925025329284634,0.0,0.25403318927124824,0.3710691823899407,0.8040201005025126,0.810803689064574,0.7702239789196232,0.12825000000000272,0.0,0.7161771786230146,0.5164641943734046,0.4701704545454613,1
0.34868505452212245,0.0143454038997242,0.16869300911853533,0.0,0.23687770116460571,0.3226415094339673,0.9483417085427194,0.7567852437417758,0.5404479578392706,0.17950000000000726,0.0,0.6668271545498277,0.5655370843989751,0.5232438016528947,1
0.38152661962796475,0.07855153203343054,0.12968591691995515,0.0,0.18607106331036205,0.306289308176092,0.969045226130654,0.5541501976284544,0.3243741765480777,0.17950000000000726,0.0,0.580404429465568,0.5327685421994839,0.43711260330578694,1
0.38806927517639606,0.18565459610027707,0.051925025329284634,0.0,0.23687770116460571,0.2581761006289305,0.8349748743718677,0.7296442687747204,0.6350461133069716,0.17950000000000726,0.0,0.44463168030812134,0.5083120204603577,0.34439566115702347,1
0.34868505452212245,0.17855153203342802,0.14285714285714943,0.0,0.2876843390188493,0.40314465408803885,0.7732663316582966,0.9459815546772258,0.8648221343873482,0.30775000000001,0.0,0.37048627828597575,0.57384910485934,0.3907541322314052,1
0.34201411161000533,0.12855153203342612,0.2077001013171155,0.0,0.2876843390188493,0.5320754716981124,0.8659296482412137,0.8919631093544276,0.8648221343873482,0.5384999999999991,0.02092220190939985,0.6174771304766408,0.7295396419437346,0.5232438016528947,1
0.40782552918537573,0.20000000000000126,0.1816109422492398,0.0,0.13559433868894538,0.22578616352199185,0.938090452261308,0.7296442687747204,0.7433465085639044,0.44874999999999543,0.09384521633150379,0.9506499759268131,0.7787723785166232,0.5364152892561943,1
0.3947402180885131,0.1928969359331522,0.2857142857142758,0.0,0.0,0.0,0.876180904522616,0.5541501976284544,0.4055335968379313,0.08975000000000363,0.07292301442210394,0.9260953298025849,0.6393861892583079,0.4172262396694239,1
0.335471456061574,0.12855153203342612,0.44148936170212977,0.0,0.01715548810664253,0.16132075471698365,0.8040201005025126,0.4052700922266188,0.4055335968379313,0.05125000000000455,0.0,0.7284545016851067,0.5820012787723725,0.41064049586776824,1
0.37498396407953344,0.17144846796657262,0.4285714285714253,0.0,0.25403318927124824,0.40314465408803885,0.8556783919598023,0.4729907773386009,0.6350461133069716,0.19225000000001274,0.0,0.7284545016851067,0.631234015345261,0.5033574380165318,1
0.41449647209749285,0.18565459610027707,0.25962512664640014,0.0,0.25403318927124824,0.3710691823899407,0.907135678391962,0.44584980237154553,0.4189723320158027,0.12825000000000272,0.0,0.7407318247472209,0.631234015345261,0.4966425619834683,1
0.37498396407953344,0.11434540389972167,0.1816109422492398,0.0,0.22005212629079013,0.35471698113206546,0.8968844221105597,0.3783926218708999,0.3783926218708759,0.07699999999999818,0.0,0.7900818488204078,0.631234015345261,0.45699896694215,1
0.4341244387427867,0.16434540389972357,0.3634751773049694,0.0,0.47375540232921143,0.4999999999999857,1.0,0.5675889328063258,0.7433465085639044,0.29500000000000454,0.0,0.9629272989889271,0.7213874680306877,0.5497159090909135,1
0.5196921103271251,0.2714484679665764,0.545339412360676,0.09190764402601197,0.6093497410181268,0.5805031446540859,1.0,0.7433465085639044,0.7836627140974947,0.4745000000000118,0.10420475319927187,0.9629272989889271,0.7787723785166232,0.5960743801652952,1
0.4538806927517664,0.25710306406685224,0.5195035460992901,0.01143241425689805,0.5077364653096395,0.5320754716981124,0.8968844221105597,0.6621870882740508,0.527009222661399,0.3335000000000036,0.0,0.7407318247472209,0.6967710997442433,0.45699896694215,1
0.31571520205259435,0.1356545961002815,0.3895643363728451,0.0,0.37247203985352106,0.4839622641509223,0.8659296482412137,0.6487483530961794,0.5001317523056562,0.07699999999999818,0.0,0.6791044776119418,0.5492327365728958,0.3575671487603348,1
0.2696600384862037,0.007103064066855389,0.3634751773049694,0.0,0.13559433868894538,0.4191823899371022,0.969045226130654,0.7836627140974947,0.7836627140974947,0.1025000000000091,0.0,0.8642272508425534,0.45907928388746916,0.38416838842974954,1
0.36844130853110213,0.1000000000000038,0.4544072948328342,0.0,0.15241991356276094,0.3871069182389755,1.0,0.7567852437417758,1.0,0.4615000000000009,0.010562665041631763,1.0,0.5327685421994839,0.45699896694215,1
0.4933932007697258,0.3714484679665739,0.6233535967578363,0.2183366958081115,0.5753686780376986,0.6449685534591226,1.0,0.716205533596849,1.0,0.6539999999999964,0.12512695510867172,0.9629272989889271,0.7213874680306877,0.5232438016528947,1
0.4341244387427867,0.3714484679665739,0.5975177304964504,0.19547186729433577,0.6938075286200015,0.9352201257861513,1.0,0.810803689064574,1.0,0.5769999999999982,0.12512695510867172,0.8271545498314805,0.7950767263427024,0.5033574380165318,1
0.28287363694676376,0.1428969359331503,0.3895643363728451,0.0,0.32166540199927746,0.7902515723270429,1.0,0.6621870882740508,0.6893280632411062,0.44874999999999543,0.03128173877716793,0.7532498796340874,0.6558503836317053,0.40392561983471653,1
0.28941629249518336,0.12855153203342612,0.3634751773049694,0.0,0.2708587641450338,0.5320754716981124,1.0,0.3512516469038206,0.31093544137023027,0.29500000000000454,0.05220394068656778,0.8765045739046675,0.6393861892583079,0.42381198347107957,1
0.38152661962796475,0.2428969359331478,0.5195035460992901,0.13786146603899757,0.38929761472733665,0.4515723270440123,0.9792964824120655,0.3243741765481017,0.31093544137023027,0.2052500000000009,0.18748730448912543,0.9135772749157403,0.7623081841432258,0.4834710743801687,1
0.30917254650416304,0.18565459610027707,0.41565349544072083,0.08047522976911392,0.15241991356276094,0.3386792452830021,0.9483417085427194,0.44584980237154553,0.44584980237154553,0.1025000000000091,0.06256347755433586,0.7407318247472209,0.680306905370846,0.3310950413223161,1
0.19076330981398237,0.0928969359331484,0.19478216818643407,0.0,0.06796212596088617,0.27421383647799386,0.9278391959799057,0.45955204216075346,0.4055335968379313,0.0,0.0,0.5062590274434223,0.4344629156010249,0.21190599173554567,1
0.21706221937139336,0.1356545961002815,0.2986322188449803,0.0,0.2708587641450338,0.4191823899371022,1.0,0.621607378129124,0.5001317523056562,0.0,0.0,0.40755897929704854,0.3606138107416921,0.24509297520661608,1
0.25003207184092147,0.17144846796657262,0.41565349544072083,0.0,0.35531655174690857,0.5644654088050225,1.0,0.8379446640316294,0.7027667984189776,0.0,0.0,0.4939817043813083,0.426310741687978,0.24509297520661608,1
0.22360487491981298,0.20710306406685666,0.14285714285714943,0.0,0.2876843390188493,0.4839622641509223,1.0,0.716205533596849,0.7433465085639044,0.1667500000000018,0.0,0.5185363505055364,0.5327685421994839,0.23837809917355263,1
0.2565747273893528,0.2999999999999987,0.10385005065856927,0.08047522976911392,0.4061231896011522,0.35471698113206546,0.9792964824120655,0.5675889328063258,0.7567852437417758,0.3462500000000091,0.0,0.5556090515166092,0.6393861892583079,0.31120867768595306,1
0.36177036561898507,0.35000000000000064,0.4285714285714253,0.18381528805200356,0.4909108904358239,0.29025157232702864,0.8968844221105597,0.621607378129124,0.7567852437417758,0.3975000000000136,0.010562665041631763,0.6174771304766408,0.6475383631713548,0.32450929752066043,1
0.4210391276459241,0.3785515320334293,0.5195035460992901,0.14951804528132978,0.44010425258158026,0.29025157232702864,0.938090452261308,0.6621870882740508,0.6487483530961794,0.29500000000000454,0.0,0.691381800674034,0.680306905370846,0.3310950413223161,1
0.4210391276459241,0.3785515320334293,0.4934143870314144,0.1264290517821199,0.47375540232921143,0.4355345911949489,0.9278391959799057,0.5944664031620688,0.5135704874835276,0.23075000000001183,0.1458460288442079,0.8519499277804393,0.7787723785166232,0.49005681818182434,1
0.3947402180885131,0.2999999999999987,0.5065856129685856,0.06904281551221587,0.4909108904358239,0.4999999999999857,0.7732663316582966,0.5675889328063258,0.5675889328063258,0.19225000000001274,0.29169205768839734,0.9629272989889271,0.7950767263427024,0.5232438016528947,1
0.29595894804361467,0.23565459610027897,0.24670719351569567,0.0228648285137961,0.42294876447496776,0.46761006289307566,0.7628140703517643,0.6890645586297937,0.7836627140974947,0.11549999999999727,0.08348567946373571,0.7161771786230146,0.6967710997442433,0.3179235537190165,1
0.22360487491981298,0.25000000000000316,0.03875379939209035,0.06904281551221587,0.35531655174690857,0.6773584905660327,1.0,0.8513833992095008,0.7836627140974947,0.1025000000000091,0.0,0.345690900337017,0.5164641943734046,0.19201962809918263,1
0.21051956382296205,0.25710306406685224,0.23378926038501424,0.08047522976911392,0.338490976873093,0.7742138364779796,1.0,0.8513833992095008,0.7567852437417758,0.1667500000000018,0.0,0.37048627828597575,0.4016943734015337,0.24509297520661608,1
0.21051956382296205,0.2428969359331478,0.46757852077000545,0.08047522976911392,0.4061231896011522,0.5320754716981124,1.0,0.905401844532299,1.0,0.3847500000000082,0.05220394068656778,0.6049590755897961,0.524616368286437,0.3179235537190165,1
0.25003207184092147,0.3142061281337032,0.44148936170212977,0.1264290517821199,0.5921942529115143,0.4839622641509223,1.0,1.0,1.0,0.6154999999999973,0.16676823075360775,0.8025999037072743,0.6886189258311964,0.3378099173553795,1
0.31571520205259435,0.33565459610028275,0.46757852077000545,0.09190764402601197,0.643000890765758,0.6933962264150961,1.0,0.9728590250329446,0.7702239789196232,0.5257500000000164,0.17712776762137583,0.8890226287915122,0.6967710997442433,0.35098140495867913,1
0.28941629249518336,0.2785515320334255,0.46757852077000545,0.08047522976911392,0.5245620401834551,0.7257861635220061,0.9895477386934769,0.716205533596849,0.4864295125164723,0.28200000000001635,0.11456429006703997,0.8148772267693665,0.6229219948849106,0.3378099173553795,1
0.18422065426555106,0.2642061281337076,0.2857142857142758,0.1723828737951055,0.6598264656395435,0.7742138364779796,0.9895477386934769,0.905401844532299,0.9459815546772018,0.25650000000000545,0.0,0.5926817525276821,0.5410805626598489,0.22520661157025304,1
0.07235407312379001,0.25710306406685224,0.0,0.10334005828288963,0.6093497410181268,0.9515723270440266,1.0,1.0,1.0,0.14100000000000817,0.0,0.25926817525275725,0.38523017902813633,0.006714876033063444,1
0.02629890955741099,0.20000000000000126,0.0,0.0,0.2876843390188493,0.7578616352201043,1.0,0.6621870882740508,0.5001317523056562,0.0,0.0,0.11121810303321847,0.28692455242966275,0.0,1
0.1051956382296323,0.17144846796657262,0.0,0.0,0.20322655141700458,0.4515723270440123,0.907135678391962,0.49986824769434374,0.4729907773386009,0.07699999999999818,0.0,0.345690900337017,0.3935421994884868,0.1390754132231452,1
0.28941629249518336,0.2856545961002809,0.24670719351569567,0.0,0.38929761472733665,0.4999999999999857,1.0,0.8648221343873482,0.9865612648221286,0.4232500000000073,0.2500507820434613,0.7900818488204078,0.6558503836317053,0.3907541322314052,1
0.41449647209749285,0.4000000000000025,0.5585106382978703,0.09190764402601197,0.4909108904358239,0.6289308176100593,1.0,1.0,1.0,0.5127500000000055,0.37497460897826934,0.9506499759268131,0.8033887468030674,0.43711260330578694,1
0.37498396407953344,0.3785515320334293,0.4544072948328342,0.05738623626990404,0.42294876447496776,0.5160377358490491,1.0,0.9322793148880179,0.9865612648221286,0.44874999999999543,0.3020515945561654,0.8396726047183471,0.746003836317132,0.37745351239669783,1
0.27633098139833245,0.2785515320334255,0.19478216818643407,0.0,0.35531655174690857,0.4191823899371022,0.969045226130654,0.7973649538867026,0.8919631093544036,0.3975000000000136,0.20840950639854375,0.6543090996629611,0.7049232736572904,0.3179235537190165,1
0.21706221937139336,0.2142061281337057,0.051925025329284634,0.0,0.3045099138926649,0.5320754716981124,1.0,0.810803689064574,0.8782608695652196,0.29500000000000454,0.09384521633150379,0.45690900337023543,0.6147698209718636,0.21190599173554567,1
0.19076330981398237,0.17855153203342802,0.0,0.0,0.2876843390188493,0.6933962264150961,1.0,0.9188405797101464,0.9459815546772018,0.25650000000000545,0.04164127564493601,0.3582089552238835,0.5164641943734046,0.17884814049587128,1
0.15792174470814008,0.15710306406685476,0.0,0.0,0.3045099138926649,0.7097484276729428,1.0,0.905401844532299,0.7973649538867026,0.29500000000000454,0.10420475319927187,0.4321136254212767,0.6147698209718636,0.25826446280991566,1
0.1381654906991604,0.20710306406685666,0.0,0.0,0.32166540199927746,0.5320754716981124,0.969045226130654,0.7567852437417758,0.5135704874835276,0.24375,0.11456429006703997,0.5185363505055364,0.6886189258311964,0.24509297520661608,1
0.151250801796023,0.2142061281337057,0.0,0.0,0.25403318927124824,0.4191823899371022,0.938090452261308,0.6350461133069955,0.5001317523056562,0.15399999999999636,0.04164127564493601,0.5185363505055364,0.5984654731457844,0.18543388429752697,1
0.22360487491981298,0.2142061281337057,0.07776089159067053,0.0,0.22005212629079013,0.4191823899371022,0.8349748743718677,0.6350461133069955,0.7973649538867026,0.1667500000000018,0.1458460288442079,0.5433317284544952,0.6147698209718636,0.27156508264463475,1
0.28287363694676376,0.33565459610028275,0.10385005065856927,0.0,0.42294876447496776,0.4191823899371022,0.8247236180904562,0.9188405797101464,1.0,0.4872500000000173,0.36461507211050126,0.6049590755897961,0.7706202046035762,0.3907541322314052,1
0.25003207184092147,0.4214484679665758,0.012917933130704462,0.0,0.5585431031638831,0.5644654088050225,0.9792964824120655,1.0,1.0,0.7565000000000055,0.41681901279706907,0.5926817525276821,0.7869245524296701,0.2914514462809978,1
0.19730596536241365,0.34289693593315157,0.03875379939209035,0.0,0.44010425258158026,0.6933962264150961,1.0,1.0,0.9325428194993304,0.5512500000000046,0.32297379646556523,0.5185363505055364,0.7213874680306877,0.1456611570248009,1
0.13149454778704328,0.2642061281337076,0.03875379939209035,0.0,0.2708587641450338,0.5484276729559591,1.0,0.7296442687747204,0.4055335968379313,0.15399999999999636,0.16676823075360775,0.41983630235916264,0.631234015345261,0.0861311983471078,1
0.0,0.12855153203342612,0.0,0.0,0.01715548810664253,0.3386792452830021,1.0,0.6487483530961794,0.283794466403151,0.0,0.0,0.3211362542128107,0.4344629156010249,0.0,1
0.0,0.0,0.0,0.0,0.01715548810664253,0.3386792452830021,1.0,0.5944664031620688,0.4189723320158027,0.0,0.0,0.27178623013962383,0.3443094629155982,0.0,1
0.019756254008979696,0.12144846796657706,0.0,0.0,0.35531655174690857,0.4839622641509223,1.0,0.527009222661399,0.5810276679841972,0.12825000000000272,0.02092220190939985,0.41983630235916264,0.4836956521739134,0.15896177685950824,1
0.16446440025657139,0.3142061281337032,0.14285714285714943,0.0,0.5921942529115143,0.6128930817609959,1.0,0.7296442687747204,0.7973649538867026,0.3335000000000036,0.17712776762137583,0.6049590755897961,0.5901534526854194,0.19201962809918263,1
0.14470814624759168,0.3071030640668541,0.19478216818643407,0.0,0.5245620401834551,0.6128930817609959,1.0,0.9188405797101464,0.9459815546772018,0.35900000000001453,0.21876904326629337,0.46918632643234953,0.5820012787723725,0.11260330578512652,1
0.14470814624759168,0.2999999999999987,0.10385005065856927,0.0,0.4909108904358239,0.6289308176100593,1.0,0.810803689064574,0.9188405797101464,0.3335000000000036,0.12512695510867172,0.2963408762638301,0.6558503836317053,0.17884814049587128,1
0.17754971135343398,0.35710306406685605,0.0648429584599891,0.0,0.4909108904358239,0.7097484276729428,1.0,0.8919631093544276,0.905401844532275,0.44874999999999543,0.11456429006703997,0.5185363505055364,0.746003836317132,0.2781508264462787,1
0.17100705580500267,0.3714484679665739,0.03875379939209035,0.0,0.47375540232921143,0.6933962264150961,1.0,1.0,0.9865612648221286,0.5897500000000037,0.29169205768839734,0.6791044776119418,0.7541560102301789,0.27156508264463475,1
0.1381654906991604,0.35000000000000064,0.0,0.0,0.4909108904358239,0.6449685534591226,1.0,0.9459815546772258,0.9325428194993304,0.6025000000000091,0.29169205768839734,0.4321136254212767,0.7049232736572904,0.15896177685950824,1
0.0921103271327697,0.3071030640668541,0.012917933130704462,0.0,0.5077364653096395,0.6289308176100593,1.0,0.7973649538867026,0.7027667984189776,0.3975000000000136,0.17712776762137583,0.2840635532017379,0.6640025575447522,0.09271694214876348,1
0.1118665811417494,0.3071030640668541,0.07776089159067053,0.0,0.5585431031638831,0.5160377358490491,1.0,0.7702239789196472,0.7027667984189776,0.30775000000001,0.29169205768839734,0.45690900337023543,0.7049232736572904,0.19201962809918263,1
0.16446440025657139,0.3785515320334293,0.10385005065856927,0.0,0.5753686780376986,0.4355345911949489,1.0,0.6487483530961794,0.7973649538867026,0.3975000000000136,0.3438959983749836,0.6049590755897961,0.7049232736572904,0.28473657024793436,1
0.07235407312379001,0.2928969359331497,0.07776089159067053,0.0,0.4061231896011522,0.5160377358490491,1.0,0.621607378129124,0.6756258234518983,0.3462500000000091,0.09384521633150379,0.5185363505055364,0.5901534526854194,0.16554752066116393,1
0.006542655548419628,0.17855153203342802,0.025835866261408925,0.0,0.20322655141700458,0.5160377358490491,1.0,0.7973649538867026,0.621607378129124,0.17950000000000726,0.02092220190939985,0.41983630235916264,0.5410805626598489,0.07954545454546388,1
0.12495189223861199,0.34289693593315157,0.0648429584599891,0.0,0.22005212629079013,0.4191823899371022,1.0,0.810803689064574,0.7973649538867026,0.21800000000000636,0.21876904326629337,0.531054405392381,0.631234015345261,0.19201962809918263,1
0.18422065426555106,0.47855153203342676,0.07776089159067053,0.0,0.338490976873093,0.35471698113206546,1.0,0.7702239789196472,0.9459815546772018,0.4232500000000073,0.3020515945561654,0.5433317284544952,0.6475383631713548,0.16554752066116393,1
0.0854393842206526,0.35710306406685605,0.0,0.0,0.32166540199927746,0.40314465408803885,1.0,0.8919631093544276,0.8513833992094768,0.41024999999999634,0.20840950639854375,0.2963408762638301,0.5492327365728958,0.03318698347108215,1
0.0788967286722213,0.2999999999999987,0.0,0.0,0.3045099138926649,0.5160377358490491,1.0,1.0,0.8919631093544036,0.3975000000000136,0.2293317083079436,0.3334135772749029,0.57384910485934,0.09930268595041915,1
0.098652982681201,0.36420612813370506,0.0,0.0,0.2876843390188493,0.6449685534591226,1.0,1.0,1.0,0.5257500000000164,0.3020515945561654,0.531054405392381,0.6721547314577991,0.15237603305785258,1
0.0,0.36420612813370506,0.0,0.0,0.338490976873093,0.6449685534591226,1.0,0.8648221343873482,1.0,0.4872500000000173,0.2604103189112294,0.44463168030812134,0.6640025575447522,0.04635847107438174,1
0.03284156510583062,0.4071030640668516,0.0,0.0,0.5585431031638831,0.5805031446540859,1.0,0.7973649538867026,0.905401844532275,0.3975000000000136,0.2813325208206477,0.3827636013480898,0.6558503836317053,0.07954545454546388,1
0.23027581783194176,0.5427576601671331,0.10385005065856927,0.0,0.7446141664742452,0.5968553459119326,1.0,0.8919631093544276,1.0,0.5257500000000164,0.42717854966483715,0.5433317284544952,0.7541560102301789,0.2317923553719087,1
0.30917254650416304,0.5642061281337063,0.1816109422492398,0.16095045953822784,0.710633103493787,0.5484276729559591,1.0,0.9865612648221526,0.9865612648221286,0.6795000000000073,0.489742027219173,0.6668271545498277,0.8033887468030674,0.22520661157025304,1
0.15792174470814008,0.43565459610028023,0.1167679837892507,0.0,0.5585431031638831,0.4999999999999857,1.0,0.9728590250329446,0.9325428194993304,0.5384999999999991,0.3958968108876692,0.5433317284544952,0.6721547314577991,0.10601756198347084,1
0.006542655548419628,0.2999999999999987,0.012917933130704462,0.0,0.42294876447496776,0.5484276729559591,1.0,1.0,1.0,0.4615000000000009,0.41681901279706907,0.345690900337017,0.6229219948849106,0.07954545454546388,1
0.013085311096850924,0.2856545961002809,0.0,0.0,0.42294876447496776,0.6449685534591226,1.0,1.0,1.0,0.5897500000000037,0.43753808653260523,0.3334135772749029,0.7049232736572904,0.11918904958678218,1
0.07235407312379001,0.38565459610027836,0.0,0.0,0.5753686780376986,0.7902515723270429,1.0,0.9594202898550732,1.0,0.6539999999999964,0.37497460897826934,0.37048627828597575,0.7049232736572904,0.10601756198347084,1
0.11840923669018069,0.5285515320334286,0.0,0.0,0.710633103493787,0.8871069182389898,1.0,0.7433465085639044,0.8648221343873482,0.6154999999999973,0.4478976234003733,0.37048627828597575,0.6640025575447522,0.12590392561983388,1
0.18422065426555106,0.6071030640668529,0.1816109422492398,0.0,0.6093497410181268,0.7902515723270429,1.0,0.7296442687747204,0.8242424242424214,0.5127500000000055,0.5104611009547092,0.5433317284544952,0.7049232736572904,0.2317923553719087,1
0.21706221937139336,0.5285515320334286,0.31155015197568475,0.0,0.5077364653096395,0.6933962264150961,1.0,0.810803689064574,0.7433465085639044,0.3975000000000136,0.43753808653260523,0.7161771786230146,0.7376918158567815,0.2914514462809978,1
0.17100705580500267,0.4714484679665777,0.2077001013171155,0.0,0.5753686780376986,0.822641509433953,1.0,0.9188405797101464,0.8242424242424214,0.5127500000000055,0.562665041641277,0.7407318247472209,0.7787723785166232,0.27156508264463475,1
0.19076330981398237,0.5714484679665751,0.19478216818643407,0.0,0.7614397413480307,0.822641509433953,1.0,0.9865612648221526,1.0,0.7820000000000163,0.7501523461304208,0.8148772267693665,0.8280051150895117,0.2914514462809978,1
0.30917254650416304,0.7071030640668503,0.3634751773049694,0.18381528805200356,0.9138596549107917,0.8062893081760777,1.0,0.9594202898550732,1.0,0.7692500000000109,0.7188706073532529,0.8148772267693665,0.8115409207161143,0.3179235537190165,1
0.2433611289287927,0.6642061281337038,0.41565349544072083,0.18381528805200356,0.8798785919303336,0.9031446540880531,1.0,1.0,1.0,0.6667500000000018,0.6979484054438346,0.691381800674034,0.7787723785166232,0.25826446280991566,1
0.0921103271327697,0.5285515320334286,0.3505572441742649,0.03452140775610794,0.7446141664742452,0.9352201257861513,1.0,1.0,1.0,0.7180000000000064,0.7083079423116027,0.7407318247472209,0.6886189258311964,0.20532024793389,1
0.11840923669018069,0.5285515320334286,0.44148936170212977,0.05738623626990404,0.7446141664742452,0.9676100628930614,1.0,1.0,1.0,0.8335000000000037,0.6979484054438346,0.9135772749157403,0.7132352941176408,0.27156508264463475,1
0.28941629249518336,0.6427576601671305,0.5585106382978703,0.1264290517821199,0.8122463792023044,0.9191823899370879,1.0,1.0,1.0,0.9487499999999954,0.8541539711558106,0.9383726528646991,0.893542199488494,0.37086776859504217,1
0.28941629249518336,0.6927576601671325,0.5585106382978703,0.08047522976911392,0.7277885916004296,0.822641509433953,1.0,1.0,1.0,0.9232500000000072,0.8959983749746103,0.9260953298025849,0.9016943734015265,0.34439566115702347,1
0.21706221937139336,0.621448467966577,0.5065856129685856,0.0228648285137961,0.7614397413480307,0.822641509433953,1.0,1.0,1.0,0.80775000000001,0.6666666666666666,0.9012999518536262,0.7213874680306877,0.27156508264463475,1
0.25003207184092147,0.5785515320334242,0.4934143870314144,0.11499663752522185,0.8967041668041491,0.9676100628930614,1.0,0.9322793148880179,1.0,0.7180000000000064,0.6563071297988986,0.8765045739046675,0.6967710997442433,0.2781508264462787,1
0.25003207184092147,0.6071030640668529,0.5195035460992901,0.1723828737951055,0.863053017056548,1.0,1.0,0.8919631093544276,1.0,0.7307500000000118,0.8647166361974423,0.8642272508425534,0.7706202046035762,0.2914514462809978,1
0.23681847338037304,0.6142061281337082,0.5065856129685856,0.1264290517821199,0.6938075286200015,0.8547169811320511,1.0,0.9728590250329446,1.0,0.6922500000000127,0.8334348974202744,0.8765045739046675,0.7541560102301789,0.29803719008265345,1
0.25003207184092147,0.5642061281337063,0.48049645390070994,0.09190764402601197,0.6093497410181268,0.5484276729559591,1.0,0.8513833992095008,0.6893280632411062,0.5512500000000046,0.687588868576085,0.8890226287915122,0.7295396419437346,0.35098140495867913,1
0.21706221937139336,0.5356545961002777,0.5065856129685856,0.05738623626990404,0.5921942529115143,0.3871069182389755,1.0,0.5675889328063258,0.5135704874835276,0.4232500000000073,0.6772293317083169,0.8271545498314805,0.6886189258311964,0.31120867768595306,1
0.098652982681201,0.5142061281337045,0.4544072948328342,0.0,0.5077364653096395,0.4839622641509223,1.0,0.4729907773386009,0.4595520421607295,0.32050000000001544,0.6250253910217306,0.691381800674034,0.5820012787723725,0.17884814049587128,1
0.03284156510583062,0.4714484679665777,0.24670719351569567,0.0,0.5077364653096395,0.7097484276729428,1.0,0.6756258234519222,0.6621870882740508,0.25650000000000545,0.5104611009547092,0.580404429465568,0.49184782608696037,0.1390754132231452,1
0.02629890955741099,0.5,0.0909321175278648,0.0,0.5921942529115143,0.7418238993710695,1.0,1.0,1.0,0.30775000000001,0.5208206378224772,0.5926817525276821,0.5164641943734046,0.1456611570248009,1
0.006542655548419628,0.5142061281337045,0.1167679837892507,0.0,0.6093497410181268,0.5968553459119326,1.0,1.0,1.0,0.5127500000000055,0.573024578509045,0.6049590755897961,0.57384910485934,0.09271694214876348,1
0.0,0.4927576601671312,0.0909321175278648,0.0,0.5921942529115143,0.5644654088050225,1.0,0.8782608695652196,0.7836627140974947,0.5512500000000046,0.5521023765996452,0.5185363505055364,0.5492327365728958,0.15237603305785258,1
0.03938422065426191,0.5785515320334242,0.12968591691995515,0.0,0.710633103493787,0.6933962264150961,1.0,0.7836627140974947,0.6893280632411062,0.4232500000000073,0.6563071297988986,0.5556090515166092,0.6558503836317053,0.27156508264463475,1
0.15792174470814008,0.7000000000000013,0.3634751773049694,0.1264290517821199,0.7446141664742452,0.7742138364779796,1.0,0.9594202898550732,0.7567852437417758,0.5384999999999991,0.7605118829981704,0.7284545016851067,0.8033887468030674,0.2516787190082717,1
0.19730596536241365,0.685654596100277,0.545339412360676,0.14951804528132978,0.6093497410181268,0.7257861635220061,1.0,1.0,0.7973649538867026,0.6025000000000091,0.7292301442210025,0.8271545498314805,0.7213874680306877,0.21190599173554567,1
0.151250801796023,0.6427576601671305,0.4544072948328342,0.14951804528132978,0.5753686780376986,0.5644654088050225,1.0,0.8379446640316294,0.6756258234518983,0.4360000000000127,0.7188706073532529,0.691381800674034,0.5984654731457844,0.20532024793389,1
0.1118665811417494,0.6499999999999994,0.2857142857142758,0.14951804528132978,0.5585431031638831,0.35471698113206546,0.8866331658291483,0.5541501976284544,0.6621870882740508,0.4232500000000073,0.645947592931149,0.4814636494944636,0.6147698209718636,0.1456611570248009,1
0.11840923669018069,0.6571030640668547,0.2986322188449803,0.08047522976911392,0.4909108904358239,0.2581761006289305,0.84522613065327,0.527009222661399,0.7296442687746965,0.5127500000000055,0.5521023765996452,0.5062590274434223,0.5820012787723725,0.12590392561983388,1
0.15792174470814008,0.6571030640668547,0.4544072948328342,0.10334005828288963,0.6093497410181268,0.3871069182389755,0.9792964824120655,0.6890645586297937,0.7567852437417758,0.4232500000000073,0.604306317286213,0.691381800674034,0.524616368286437,0.21862086776859735,1
0.20397690827453077,0.6571030640668547,0.6494427558257351,0.14951804528132978,0.710633103493787,0.6449685534591226,1.0,0.9322793148880179,0.9459815546772018,0.41024999999999634,0.7501523461304208,0.8642272508425534,0.5820012787723725,0.2781508264462787,1
0.15792174470814008,0.5999999999999974,0.6362715298885407,0.14951804528132978,0.5585431031638831,0.822641509433953,1.0,1.0,1.0,0.5127500000000055,0.7292301442210025,0.9135772749157403,0.5984654731457844,0.21190599173554567,1
0.0788967286722213,0.4927576601671312,0.5065856129685856,0.13786146603899757,0.4061231896011522,0.8386792452830164,1.0,0.9728590250329446,0.7296442687746965,0.35900000000001453,0.604306317286213,0.7778045257582936,0.5164641943734046,0.1456611570248009,1
0.03938422065426191,0.43565459610028023,0.4544072948328342,0.0,0.32166540199927746,0.8871069182389898,1.0,0.7973649538867026,0.3783926218708759,0.11549999999999727,0.531383302864109,0.6174771304766408,0.4016943734015337,0.1390754132231452,1
0.0,0.45710306406685347,0.37664640324214066,0.0,0.3045099138926649,0.9515723270440266,1.0,0.7836627140974947,0.5135704874835276,0.1667500000000018,0.562665041641277,0.642031776600869,0.38523017902813633,0.11918904958678218,1
0.0,0.47855153203342676,0.2857142857142758,0.0228648285137961,0.4909108904358239,0.9515723270440266,1.0,0.8242424242424214,0.6350461133069716,0.32050000000001544,0.645947592931149,0.7284545016851067,0.5492327365728958,0.09930268595041915,1
0.02629890955741099,0.5714484679665751,0.3634751773049694,0.10334005828288963,0.710633103493787,0.8386792452830164,1.0,0.7702239789196472,0.6350461133069716,0.32050000000001544,0.6666666666666666,0.6543090996629611,0.6640025575447522,0.18543388429752697,1
0.17754971135343398,0.7427576601671281,0.5195035460992901,0.1723828737951055,0.8122463792023044,0.6449685534591226,1.0,0.8242424242424214,1.0,0.6282500000000028,0.7605118829981704,0.6543090996629611,0.6967710997442433,0.31120867768595306,1
0.2433611289287927,0.8071030640668542,0.4934143870314144,0.4023761488455492,0.9983174425126364,0.6289308176100593,1.0,1.0,1.0,0.9872500000000173,0.9063579118423783,0.7778045257582936,0.7623081841432258,0.3046229338842974,1
0.18422065426555106,0.7285515320334236,0.4544072948328342,0.45976238511545325,1.0,0.8386792452830164,1.0,1.0,1.0,0.8205000000000154,0.9792809262644823,0.7532498796340874,0.7950767263427024,0.2516787190082717,1
0.151250801796023,0.6927576601671325,0.5065856129685856,0.26429051782111745,0.7954208043284888,0.8871069182389898,1.0,0.8379446640316294,0.6081686429512526,0.4872500000000173,0.8959983749746103,0.7407318247472209,0.6967710997442433,0.25826446280991566,1
0.17754971135343398,0.685654596100277,0.48049645390070994,0.22976911006500952,0.6598264656395435,0.7578616352201043,1.0,0.527009222661399,0.6487483530961794,0.44874999999999543,0.7708714198659385,0.8396726047183471,0.6475383631713548,0.29803719008265345,1
0.20397690827453077,0.685654596100277,0.48049645390070994,0.3907195696032374,0.863053017056548,0.8547169811320511,1.0,0.5541501976284544,0.6487483530961794,0.4745000000000118,0.7708714198659385,0.8271545498314805,0.7541560102301789,0.34439566115702347,1
0.19730596536241365,0.7142061281337058,0.5065856129685856,0.4483299708585552,0.8290719540760899,1.0,1.0,0.5944664031620688,0.4729907773386009,0.3335000000000036,0.7708714198659385,0.6668271545498277,0.7213874680306877,0.2781508264462787,1
0.15792174470814008,0.6571030640668547,0.44148936170212977,0.3333333333333333,0.6093497410181268,0.7742138364779796,1.0,0.6890645586297937,0.6081686429512526,0.1667500000000018,0.6772293317083169,0.5926817525276821,0.49999999999999273,0.17884814049587128,1
0.18422065426555106,0.6642061281337038,0.545339412360676,0.3102443398341235,0.7782653162218464,0.5160377358490491,1.0,0.8242424242424214,0.8782608695652196,0.2692500000000109,0.7083079423116027,0.7161771786230146,0.49184782608696037,0.2649793388429791,1
0.2696600384862037,0.8071030640668542,0.7272036474164055,0.4483299708585552,0.8967041668041491,0.5968553459119326,1.0,0.8242424242424214,0.81080368906455,0.44874999999999543,0.8541539711558106,0.8890226287915122,0.7049232736572904,0.4172262396694239,1
0.28941629249518336,0.8071030640668542,0.7142857142857011,0.517372786370771,0.6938075286200015,0.6613207547169694,1.0,0.7433465085639044,0.7027667984189776,0.3975000000000136,0.8959983749746103,1.0,0.746003836317132,0.4172262396694239,1
0.30262989095574344,0.7214484679665745,0.7532928064842813,0.47119479937235126,0.643000890765758,0.5968553459119326,1.0,0.7296442687747204,0.7973649538867026,0.4745000000000118,0.8750761730652105,0.987722676937886,0.6967710997442433,0.3907541322314052,1
0.3223861449647231,0.7571030640668522,0.8571428571428505,0.45976238511545325,0.8122463792023044,0.6289308176100593,1.0,0.7433465085639044,0.81080368906455,0.6667500000000018,0.9479991874873144,0.9754453538757718,0.7541560102301789,0.40392561983471653,1
0.2565747273893528,0.7500000000000032,0.7272036474164055,0.47119479937235126,0.7277885916004296,0.7097484276729428,1.0,0.6350461133069955,0.5541501976284544,0.4872500000000173,0.9376396506195462,0.9754453538757718,0.7541560102301789,0.3378099173553795,1
0.17100705580500267,0.6427576601671305,0.4285714285714253,0.41380856310244724,0.6938075286200015,0.7742138364779796,1.0,0.4864295125164723,0.3378129117259491,0.2052500000000009,0.7708714198659385,0.7532498796340874,0.6475383631713548,0.2317923553719087,1
0.17754971135343398,0.6427576601671305,0.24670719351569567,0.3678547410894413,0.863053017056548,0.8871069182389898,1.0,0.5404479578392706,0.5001317523056562,0.2692500000000109,0.6355880560633809,0.5433317284544952,0.57384910485934,0.1722623966942156,1
